*RAS_DATA_START
*RAS_HEADER_START
*DISP_FMT_X "%.2f"
*DISP_FMT_Y "%.0f"
*DISP_FULLSCALE "14045.0000000000"
*DISP_LINE_COLOR "255.0000000000"
*DISP_LINE_STYLE "0.0000000000"
*DISP_LINE_WIDTH "0.2500000000"
*DISP_NOTE "測定データ-2"
*DISP_OFFSET_Y "0.0000000000"
*DISP_PEAKSEARCH_UNIT_Y "cps"
*DISP_RANGE_BOTTOM "0.0000000000"
*DISP_RANGE_LEFT "20.0000000000"
*DISP_RANGE_LOGCUTOFF "0.0100000000"
*DISP_RANGE_RIGHT "70.0000000000"
*DISP_RANGE_TOP "14045.0000000000"
*DISP_SCALE_MODE_Y "0.0000000000"
*DISP_TAB_NAME "2θ/θ"
*DISP_TITLE_Y "強度"
*DISP_UNIT_Y "cps"
*DISP_WINDOW_NAME "MSG_MACROENGINE"
*FILE_COMMENT " "
*FILE_MD5 ""
*FILE_MEMO " "
*FILE_OPERATOR "Administrator"
*FILE_SAMPLE " "
*FILE_TYPE "RAS_RAW"
*FILE_USERGROUP "システムマネージャ"
*FILE_VERSION "1.0000000000"
*HW_ATTACHMENT_ID "ATT0025"
*HW_ATTACHMENT_NAME "標準|Standard"
*HW_COUNTER_ID-0 "CUT0025"
*HW_COUNTER_ID-1 "CUT0020"
*HW_COUNTER_ID-2 "CUT0020"
*HW_COUNTER_ID-3 "CSL0021"
*HW_COUNTER_ID-4 "CMC0021"
*HW_COUNTER_NAME-0 "D/teX Ultra|D/teX Ultra"
*HW_COUNTER_NAME-1 "None|None"
*HW_COUNTER_NAME-2 "None|None"
*HW_COUNTER_NAME-3 "BBM|BBM"
*HW_COUNTER_NAME-4 "検出器モノクロメータ|Detector monochromator"
*HW_COUNTER_SELECT_NAME "D/teX Ultra|D/teX Ultra"
*HW_GONIOMETER_ID "GON0023"
*HW_GONIOMETER_NAME "SmartLab|SmartLab"
*HW_GONIOMETER_RADIUS-0 "90.0"
*HW_GONIOMETER_RADIUS-1 "114.0"
*HW_GONIOMETER_RADIUS-2 "190.0"
*HW_GONIOMETER_RADIUS-3 "300.0"
*HW_GONIOMETER_RADIUS-4 "187.0"
*HW_GONIOMETER_RADIUS-5 "300.0"
*HW_GONIOMETER_RADIUS-6 "113.0"
*HW_GONIOMETER_RADIUS-7 "331.0"
*HW_I_OPT_ID-0 "CBO0021"
*HW_I_OPT_ID-1 "ICR0023"
*HW_I_OPT_ID-2 "ISL0021"
*HW_I_OPT_ID-3 "ISO0021"
*HW_I_OPT_ID-4 "IAD0021"
*HW_I_OPT_ID-5 "IPR0001"
*HW_I_OPT_NAME-0 "CBOユニット|CBO unit"
*HW_I_OPT_NAME-1 "標準入射光学ユニット|Standard incident optical unit"
*HW_I_OPT_NAME-2 "標準入射スリットボックス|Standard incident slit box"
*HW_I_OPT_NAME-3 "入射平行スリット|Incident parallel slit"
*HW_I_OPT_NAME-4 "長手制限スリット|Length limiting slit"
*HW_I_OPT_NAME-5 "None|None"
*HW_R_ATTENUATER_AUTOMODE "0"
*HW_R_OPT_ID-0 "RSS0021"
*HW_R_OPT_ID-1 "RCR0023"
*HW_R_OPT_ID-2 "RSO0021"
*HW_R_OPT_ID-3 "RRS0021"
*HW_R_OPT_ID-4 "ATN0021"
*HW_R_OPT_ID-5 "RFL0021"
*HW_R_OPT_ID-6 "RAD0021"
*HW_R_OPT_NAME-0 "標準受光スリットボックス1|Standard receiving slit box # 1"
*HW_R_OPT_NAME-1 "標準受光光学ユニット1|Standard receiving unit # 1"
*HW_R_OPT_NAME-2 "標準受光光学ユニット2|Standard receiving optical unit # 2"
*HW_R_OPT_NAME-3 "標準受光スリットボックス2|Standard receiving slit box # 2"
*HW_R_OPT_NAME-4 "標準アッテネータ|Standard Attenuator"
*HW_R_OPT_NAME-5 "Cu Kβ|Cu K-beta"
*HW_R_OPT_NAME-6 "調整用受光スリット|Alignment receiving slit"
*HW_SAMPLE_HOLDER_ID "SMP0023"
*HW_SAMPLE_HOLDER_NAME "標準Zステージ|Standard Z stage"
*HW_XG_CURRENT_MAX "50"
*HW_XG_CURRENT_MIN "2"
*HW_XG_CURRENT_RESOLUTION "1"
*HW_XG_CURRENT_UNIT "mA"
*HW_XG_FOCUS "1mm x 10mm"
*HW_XG_FOCUS_TYPE "Normal"
*HW_XG_ID ""
*HW_XG_NAME "3kW 封入管(ID:1200)|3kW Sealed tube(ID:1200)"
*HW_XG_TARGET_ATOMIC_NUMBER "29.0000000000"
*HW_XG_TARGET_NAME "Cu"
*HW_XG_TYPE "Hermetic"
*HW_XG_VOLTAGE_MAX "60"
*HW_XG_VOLTAGE_MIN "20"
*HW_XG_VOLTAGE_RESOLUTION "1"
*HW_XG_VOLTAGE_UNIT "kV"
*HW_XG_WATT_MAX "1.500"
*HW_XG_WATT_UNIT "kW"
*HW_XG_WAVE_LENGTH_ALPHA1 "1.540593"
*HW_XG_WAVE_LENGTH_ALPHA2 "1.544414"
*HW_XG_WAVE_LENGTH_BETA "1.392250"
*MEAS_COND_AXIS_NAME-0 "2θ/θ"
*MEAS_COND_AXIS_NAME-1 "2θ"
*MEAS_COND_AXIS_NAME-2 "ω"
*MEAS_COND_AXIS_NAME-3 "Z"
*MEAS_COND_AXIS_NAME-4 "2θ/ω"
*MEAS_COND_AXIS_NAME-5 "θs"
*MEAS_COND_AXIS_NAME-6 "θd"
*MEAS_COND_AXIS_NAME-7 "Ts"
*MEAS_COND_AXIS_NAME-8 "CBO選択スリット"
*MEAS_COND_AXIS_NAME-9 "M"
*MEAS_COND_AXIS_NAME-10 "入射平行スリット"
*MEAS_COND_AXIS_NAME-11 "入射スリット"
*MEAS_COND_AXIS_NAME-12 ""
*MEAS_COND_AXIS_NAME-13 "Zs"
*MEAS_COND_AXIS_NAME-14 "入射光学素子"
*MEAS_COND_AXIS_NAME-15 "長手制限スリット"
*MEAS_COND_AXIS_NAME-16 "センタースリット"
*MEAS_COND_AXIS_NAME-17 "フィルター"
*MEAS_COND_AXIS_NAME-18 "受光スリット1"
*MEAS_COND_AXIS_NAME-19 "受光スリット2"
*MEAS_COND_AXIS_NAME-20 "受光光学素子"
*MEAS_COND_AXIS_NAME-21 "受光平行スリット"
*MEAS_COND_AXIS_NAME-22 "調整用受光スリット"
*MEAS_COND_AXIS_NAME-23 ""
*MEAS_COND_AXIS_NAME-24 ""
*MEAS_COND_AXIS_NAME-25 "Zd"
*MEAS_COND_AXIS_NAME-26 "アッテネータ"
*MEAS_COND_AXIS_NAME-27 "検出器モノクロメータ"
*MEAS_COND_AXIS_NAME-28 "モノクロメータスリット"
*MEAS_COND_AXIS_NAME-29 "プライマリビーム"
*MEAS_COND_AXIS_NAME-30 "PHA"
*MEAS_COND_AXIS_NAME_INTERNAL-0 "TwoThetaTheta"
*MEAS_COND_AXIS_NAME_INTERNAL-1 "TwoTheta"
*MEAS_COND_AXIS_NAME_INTERNAL-2 "Omega"
*MEAS_COND_AXIS_NAME_INTERNAL-3 "Z"
*MEAS_COND_AXIS_NAME_INTERNAL-4 "TwoThetaOmega"
*MEAS_COND_AXIS_NAME_INTERNAL-5 "ThetaS"
*MEAS_COND_AXIS_NAME_INTERNAL-6 "ThetaD"
*MEAS_COND_AXIS_NAME_INTERNAL-7 "Ts"
*MEAS_COND_AXIS_NAME_INTERNAL-8 "CBO"
*MEAS_COND_AXIS_NAME_INTERNAL-9 "CBO-M"
*MEAS_COND_AXIS_NAME_INTERNAL-10 "IncidentSollerSlit"
*MEAS_COND_AXIS_NAME_INTERNAL-11 "IncidentSlitBox"
*MEAS_COND_AXIS_NAME_INTERNAL-12 "IncidentSlitBox-_Axis"
*MEAS_COND_AXIS_NAME_INTERNAL-13 "Zs"
*MEAS_COND_AXIS_NAME_INTERNAL-14 "IncidentMonochromator"
*MEAS_COND_AXIS_NAME_INTERNAL-15 "IncidentAxdSlit"
*MEAS_COND_AXIS_NAME_INTERNAL-16 "CenterSlit"
*MEAS_COND_AXIS_NAME_INTERNAL-17 "Filter"
*MEAS_COND_AXIS_NAME_INTERNAL-18 "ReceivingSlitBox1"
*MEAS_COND_AXIS_NAME_INTERNAL-19 "ReceivingSlitBox2"
*MEAS_COND_AXIS_NAME_INTERNAL-20 "ReceivingOptics"
*MEAS_COND_AXIS_NAME_INTERNAL-21 "ReceivingSollerSlit"
*MEAS_COND_AXIS_NAME_INTERNAL-22 "ReceivingAxdSlit"
*MEAS_COND_AXIS_NAME_INTERNAL-23 "ReceivingSlitBox1-_Axis"
*MEAS_COND_AXIS_NAME_INTERNAL-24 "ReceivingSlitBox2-_Axis"
*MEAS_COND_AXIS_NAME_INTERNAL-25 "ReceivingSlitBox2-Zd"
*MEAS_COND_AXIS_NAME_INTERNAL-26 "Attenuator"
*MEAS_COND_AXIS_NAME_INTERNAL-27 "CounterMonochromator"
*MEAS_COND_AXIS_NAME_INTERNAL-28 "CounterSlit"
*MEAS_COND_AXIS_NAME_INTERNAL-29 "IncidentPrimary"
*MEAS_COND_AXIS_NAME_INTERNAL-30 "PHA"
*MEAS_COND_AXIS_NAME_MAGICNO-0 "83951616.0000000000"
*MEAS_COND_AXIS_NAME_MAGICNO-1 "268632064.0000000000"
*MEAS_COND_AXIS_NAME_MAGICNO-2 "268500992.0000000000"
*MEAS_COND_AXIS_NAME_MAGICNO-3 "285278208.0000000000"
*MEAS_COND_AXIS_NAME_MAGICNO-4 "83951616.0000000000"
*MEAS_COND_AXIS_NAME_MAGICNO-5 "131072.0000000000"
*MEAS_COND_AXIS_NAME_MAGICNO-6 "131072.0000000000"
*MEAS_COND_AXIS_NAME_MAGICNO-7 "318898176.0000000000"
*MEAS_COND_AXIS_NAME_MAGICNO-8 "20971521.0000000000"
*MEAS_COND_AXIS_NAME_MAGICNO-9 "285343744.0000000000"
*MEAS_COND_AXIS_NAME_MAGICNO-10 "20971521.0000000000"
*MEAS_COND_AXIS_NAME_MAGICNO-11 "22020097.0000000000"
*MEAS_COND_AXIS_NAME_MAGICNO-12 "25165824.0000000000"
*MEAS_COND_AXIS_NAME_MAGICNO-13 "318898176.0000000000"
*MEAS_COND_AXIS_NAME_MAGICNO-14 "1.0000000000"
*MEAS_COND_AXIS_NAME_MAGICNO-15 "20971521.0000000000"
*MEAS_COND_AXIS_NAME_MAGICNO-16 "20971521.0000000000"
*MEAS_COND_AXIS_NAME_MAGICNO-17 "20971521.0000000000"
*MEAS_COND_AXIS_NAME_MAGICNO-18 "23068673.0000000000"
*MEAS_COND_AXIS_NAME_MAGICNO-19 "23068673.0000000000"
*MEAS_COND_AXIS_NAME_MAGICNO-20 "20971521.0000000000"
*MEAS_COND_AXIS_NAME_MAGICNO-21 "20971521.0000000000"
*MEAS_COND_AXIS_NAME_MAGICNO-22 "20971521.0000000000"
*MEAS_COND_AXIS_NAME_MAGICNO-23 "25165824.0000000000"
*MEAS_COND_AXIS_NAME_MAGICNO-24 "25165824.0000000000"
*MEAS_COND_AXIS_NAME_MAGICNO-25 "285343744.0000000000"
*MEAS_COND_AXIS_NAME_MAGICNO-26 "17301505.0000000000"
*MEAS_COND_AXIS_NAME_MAGICNO-27 "20971521.0000000000"
*MEAS_COND_AXIS_NAME_MAGICNO-28 "20971521.0000000000"
*MEAS_COND_AXIS_NAME_MAGICNO-29 "20971521.0000000000"
*MEAS_COND_AXIS_NAME_MAGICNO-30 "0.0000000000"
*MEAS_COND_AXIS_OFFSET-0 "-"
*MEAS_COND_AXIS_OFFSET-1 "-0.0310000000"
*MEAS_COND_AXIS_OFFSET-2 "0.1589000000"
*MEAS_COND_AXIS_OFFSET-3 "-"
*MEAS_COND_AXIS_OFFSET-4 "-"
*MEAS_COND_AXIS_OFFSET-5 "0.1589000000"
*MEAS_COND_AXIS_OFFSET-6 "-0.1899000000"
*MEAS_COND_AXIS_OFFSET-7 "-"
*MEAS_COND_AXIS_OFFSET-8 "-"
*MEAS_COND_AXIS_OFFSET-9 "-"
*MEAS_COND_AXIS_OFFSET-10 "-"
*MEAS_COND_AXIS_OFFSET-11 "-"
*MEAS_COND_AXIS_OFFSET-12 "-"
*MEAS_COND_AXIS_OFFSET-13 "-"
*MEAS_COND_AXIS_OFFSET-14 "-"
*MEAS_COND_AXIS_OFFSET-15 "-"
*MEAS_COND_AXIS_OFFSET-16 "-"
*MEAS_COND_AXIS_OFFSET-17 "-"
*MEAS_COND_AXIS_OFFSET-18 "-"
*MEAS_COND_AXIS_OFFSET-19 "-"
*MEAS_COND_AXIS_OFFSET-20 "-"
*MEAS_COND_AXIS_OFFSET-21 "-"
*MEAS_COND_AXIS_OFFSET-22 "-"
*MEAS_COND_AXIS_OFFSET-23 "-"
*MEAS_COND_AXIS_OFFSET-24 "-"
*MEAS_COND_AXIS_OFFSET-25 "-"
*MEAS_COND_AXIS_OFFSET-26 "-"
*MEAS_COND_AXIS_OFFSET-27 "-"
*MEAS_COND_AXIS_OFFSET-28 "-"
*MEAS_COND_AXIS_OFFSET-29 "-"
*MEAS_COND_AXIS_OFFSET-30 "-"
*MEAS_COND_AXIS_POSITION-0 "0.0000000000"
*MEAS_COND_AXIS_POSITION-1 "0.0000000000"
*MEAS_COND_AXIS_POSITION-2 "0.0000000000"
*MEAS_COND_AXIS_POSITION-3 "-2.9326600000"
*MEAS_COND_AXIS_POSITION-4 "0.0000000000"
*MEAS_COND_AXIS_POSITION-5 "0.0000000000"
*MEAS_COND_AXIS_POSITION-6 "0.0000000000"
*MEAS_COND_AXIS_POSITION-7 "-0.7498700000"
*MEAS_COND_AXIS_POSITION-8 "BB"
*MEAS_COND_AXIS_POSITION-9 "0.0000000000"
*MEAS_COND_AXIS_POSITION-10 "Soller_slit_5.0deg"
*MEAS_COND_AXIS_POSITION-11 "2/3deg"
*MEAS_COND_AXIS_POSITION-12 "2.2088000000"
*MEAS_COND_AXIS_POSITION-13 "-0.6412500000"
*MEAS_COND_AXIS_POSITION-14 "0.0000000000"
*MEAS_COND_AXIS_POSITION-15 "10.0mm"
*MEAS_COND_AXIS_POSITION-16 "None"
*MEAS_COND_AXIS_POSITION-17 "Cu_K-beta"
*MEAS_COND_AXIS_POSITION-18 "13.000mm"
*MEAS_COND_AXIS_POSITION-19 "13.000mm"
*MEAS_COND_AXIS_POSITION-20 "No_unit"
*MEAS_COND_AXIS_POSITION-21 "Soller_slit_5.0deg"
*MEAS_COND_AXIS_POSITION-22 "None"
*MEAS_COND_AXIS_POSITION-23 "13.0000000000"
*MEAS_COND_AXIS_POSITION-24 "13.0000000000"
*MEAS_COND_AXIS_POSITION-25 "0.0281300000"
*MEAS_COND_AXIS_POSITION-26 "Open"
*MEAS_COND_AXIS_POSITION-27 "None"
*MEAS_COND_AXIS_POSITION-28 "None"
*MEAS_COND_AXIS_POSITION-29 "None"
*MEAS_COND_AXIS_POSITION-30 "38.0000000000"
*MEAS_COND_AXIS_UNIT-0 "deg"
*MEAS_COND_AXIS_UNIT-1 "deg"
*MEAS_COND_AXIS_UNIT-2 "deg"
*MEAS_COND_AXIS_UNIT-3 "mm"
*MEAS_COND_AXIS_UNIT-4 "deg"
*MEAS_COND_AXIS_UNIT-5 "deg"
*MEAS_COND_AXIS_UNIT-6 "deg"
*MEAS_COND_AXIS_UNIT-7 "mm"
*MEAS_COND_AXIS_UNIT-8 ""
*MEAS_COND_AXIS_UNIT-9 "pulse"
*MEAS_COND_AXIS_UNIT-10 ""
*MEAS_COND_AXIS_UNIT-11 ""
*MEAS_COND_AXIS_UNIT-12 "mm"
*MEAS_COND_AXIS_UNIT-13 "mm"
*MEAS_COND_AXIS_UNIT-14 ""
*MEAS_COND_AXIS_UNIT-15 ""
*MEAS_COND_AXIS_UNIT-16 ""
*MEAS_COND_AXIS_UNIT-17 ""
*MEAS_COND_AXIS_UNIT-18 ""
*MEAS_COND_AXIS_UNIT-19 ""
*MEAS_COND_AXIS_UNIT-20 ""
*MEAS_COND_AXIS_UNIT-21 ""
*MEAS_COND_AXIS_UNIT-22 ""
*MEAS_COND_AXIS_UNIT-23 "mm"
*MEAS_COND_AXIS_UNIT-24 "mm"
*MEAS_COND_AXIS_UNIT-25 "mm"
*MEAS_COND_AXIS_UNIT-26 ""
*MEAS_COND_AXIS_UNIT-27 ""
*MEAS_COND_AXIS_UNIT-28 ""
*MEAS_COND_AXIS_UNIT-29 ""
*MEAS_COND_AXIS_UNIT-30 "div"
*MEAS_COND_COUNTER_CNTLOSS_CORR "0.0000000000"
*MEAS_COND_COUNTER_PHABASE "38.0000000000"
*MEAS_COND_COUNTER_PHAWINDOW "16.0000000000"
*MEAS_COND_COUNTER_PHA_UNIT "div"
*MEAS_COND_COUNTER_TAUDIFF "30.0000000000"
*MEAS_COND_COUNTER_TAUINT "0.0000000000"
*MEAS_COND_IRRADIATION_MODE "OFF"
*MEAS_COND_IRRADIATION_WIDTH ""
*MEAS_COND_OPT_ATTR "集中法"
*MEAS_COND_OPT_NAME "@集中法"
*MEAS_COND_UNSYMMETRIC_MODE "OFF"
*MEAS_COND_XG_CURRENT "30.0000000000"
*MEAS_COND_XG_VOLTAGE "40.0000000000"
*MEAS_COND_XG_WAVE_TYPE "Ka"
*MEAS_DATA_COUNT "5001.0000000000"
*MEAS_SCAN_AXIS_X "2θ/θ"
*MEAS_SCAN_AXIS_X_INTERNAL "TwoThetaTheta"
*MEAS_SCAN_END_TIME "12/13/22 11:02:03"
*MEAS_SCAN_MODE "CONTINUOUS"
*MEAS_SCAN_MONITOR "0"
*MEAS_SCAN_RESOLUTION_X "0.0002"
*MEAS_SCAN_SPEED "2.5"
*MEAS_SCAN_SPEED_UNIT "deg/min"
*MEAS_SCAN_START "20.0000000000"
*MEAS_SCAN_START_TIME "12/13/22 10:40:39"
*MEAS_SCAN_STEP "0.0100000000"
*MEAS_SCAN_STOP "70.0000000000"
*MEAS_SCAN_UNIT_X "deg"
*MEAS_SCAN_UNIT_Y "counts"
*RAS_HEADER_END
*RAS_INT_START
20.0000 827.0000 1.0000
20.0100 771.0000 1.0000
20.0200 790.0000 1.0000
20.0300 851.0000 1.0000
20.0400 801.0000 1.0000
20.0500 839.0000 1.0000
20.0600 838.0000 1.0000
20.0700 796.0000 1.0000
20.0800 805.0000 1.0000
20.0900 815.0000 1.0000
20.1000 813.0000 1.0000
20.1100 856.0000 1.0000
20.1200 856.0000 1.0000
20.1300 906.0000 1.0000
20.1400 810.0000 1.0000
20.1500 837.0000 1.0000
20.1600 804.0000 1.0000
20.1700 854.0000 1.0000
20.1800 806.0000 1.0000
20.1900 806.0000 1.0000
20.2000 789.0000 1.0000
20.2100 900.0000 1.0000
20.2200 833.0000 1.0000
20.2300 829.0000 1.0000
20.2400 856.0000 1.0000
20.2500 853.0000 1.0000
20.2600 853.0000 1.0000
20.2700 883.0000 1.0000
20.2800 849.0000 1.0000
20.2900 860.0000 1.0000
20.3000 797.0000 1.0000
20.3100 838.0000 1.0000
20.3200 843.0000 1.0000
20.3300 838.0000 1.0000
20.3400 831.0000 1.0000
20.3500 814.0000 1.0000
20.3600 806.0000 1.0000
20.3700 786.0000 1.0000
20.3800 816.0000 1.0000
20.3900 848.0000 1.0000
20.4000 798.0000 1.0000
20.4100 810.0000 1.0000
20.4200 823.0000 1.0000
20.4300 796.0000 1.0000
20.4400 789.0000 1.0000
20.4500 814.0000 1.0000
20.4600 876.0000 1.0000
20.4700 843.0000 1.0000
20.4800 845.0000 1.0000
20.4900 867.0000 1.0000
20.5000 863.0000 1.0000
20.5100 808.0000 1.0000
20.5200 820.0000 1.0000
20.5300 840.0000 1.0000
20.5400 823.0000 1.0000
20.5500 819.0000 1.0000
20.5600 833.0000 1.0000
20.5700 850.0000 1.0000
20.5800 812.0000 1.0000
20.5900 818.0000 1.0000
20.6000 867.0000 1.0000
20.6100 788.0000 1.0000
20.6200 838.0000 1.0000
20.6300 869.0000 1.0000
20.6400 853.0000 1.0000
20.6500 777.0000 1.0000
20.6600 843.0000 1.0000
20.6700 879.0000 1.0000
20.6800 851.0000 1.0000
20.6900 843.0000 1.0000
20.7000 825.0000 1.0000
20.7100 829.0000 1.0000
20.7200 890.0000 1.0000
20.7300 810.0000 1.0000
20.7400 787.0000 1.0000
20.7500 845.0000 1.0000
20.7600 846.0000 1.0000
20.7700 856.0000 1.0000
20.7800 830.0000 1.0000
20.7900 807.0000 1.0000
20.8000 845.0000 1.0000
20.8100 793.0000 1.0000
20.8200 813.0000 1.0000
20.8300 865.0000 1.0000
20.8400 812.0000 1.0000
20.8500 826.0000 1.0000
20.8600 831.0000 1.0000
20.8700 821.0000 1.0000
20.8800 885.0000 1.0000
20.8900 850.0000 1.0000
20.9000 839.0000 1.0000
20.9100 835.0000 1.0000
20.9200 837.0000 1.0000
20.9300 845.0000 1.0000
20.9400 819.0000 1.0000
20.9500 829.0000 1.0000
20.9600 767.0000 1.0000
20.9700 768.0000 1.0000
20.9800 811.0000 1.0000
20.9900 822.0000 1.0000
21.0000 812.0000 1.0000
21.0100 828.0000 1.0000
21.0200 825.0000 1.0000
21.0300 805.0000 1.0000
21.0400 805.0000 1.0000
21.0500 850.0000 1.0000
21.0600 819.0000 1.0000
21.0700 840.0000 1.0000
21.0800 849.0000 1.0000
21.0900 836.0000 1.0000
21.1000 820.0000 1.0000
21.1100 832.0000 1.0000
21.1200 830.0000 1.0000
21.1300 809.0000 1.0000
21.1400 844.0000 1.0000
21.1500 818.0000 1.0000
21.1600 803.0000 1.0000
21.1700 855.0000 1.0000
21.1800 852.0000 1.0000
21.1900 815.0000 1.0000
21.2000 832.0000 1.0000
21.2100 842.0000 1.0000
21.2200 863.0000 1.0000
21.2300 884.0000 1.0000
21.2400 839.0000 1.0000
21.2500 853.0000 1.0000
21.2600 796.0000 1.0000
21.2700 834.0000 1.0000
21.2800 818.0000 1.0000
21.2900 834.0000 1.0000
21.3000 832.0000 1.0000
21.3100 784.0000 1.0000
21.3200 845.0000 1.0000
21.3300 839.0000 1.0000
21.3400 824.0000 1.0000
21.3500 806.0000 1.0000
21.3600 826.0000 1.0000
21.3700 805.0000 1.0000
21.3800 853.0000 1.0000
21.3900 838.0000 1.0000
21.4000 849.0000 1.0000
21.4100 828.0000 1.0000
21.4200 832.0000 1.0000
21.4300 836.0000 1.0000
21.4400 899.0000 1.0000
21.4500 824.0000 1.0000
21.4600 810.0000 1.0000
21.4700 803.0000 1.0000
21.4800 852.0000 1.0000
21.4900 843.0000 1.0000
21.5000 816.0000 1.0000
21.5100 781.0000 1.0000
21.5200 810.0000 1.0000
21.5300 820.0000 1.0000
21.5400 849.0000 1.0000
21.5500 830.0000 1.0000
21.5600 833.0000 1.0000
21.5700 792.0000 1.0000
21.5800 790.0000 1.0000
21.5900 741.0000 1.0000
21.6000 790.0000 1.0000
21.6100 776.0000 1.0000
21.6200 808.0000 1.0000
21.6300 840.0000 1.0000
21.6400 821.0000 1.0000
21.6500 828.0000 1.0000
21.6600 836.0000 1.0000
21.6700 831.0000 1.0000
21.6800 852.0000 1.0000
21.6900 845.0000 1.0000
21.7000 795.0000 1.0000
21.7100 769.0000 1.0000
21.7200 799.0000 1.0000
21.7300 795.0000 1.0000
21.7400 836.0000 1.0000
21.7500 814.0000 1.0000
21.7600 825.0000 1.0000
21.7700 814.0000 1.0000
21.7800 797.0000 1.0000
21.7900 834.0000 1.0000
21.8000 798.0000 1.0000
21.8100 804.0000 1.0000
21.8200 816.0000 1.0000
21.8300 804.0000 1.0000
21.8400 844.0000 1.0000
21.8500 843.0000 1.0000
21.8600 821.0000 1.0000
21.8700 871.0000 1.0000
21.8800 822.0000 1.0000
21.8900 827.0000 1.0000
21.9000 822.0000 1.0000
21.9100 773.0000 1.0000
21.9200 827.0000 1.0000
21.9300 812.0000 1.0000
21.9400 843.0000 1.0000
21.9500 849.0000 1.0000
21.9600 804.0000 1.0000
21.9700 810.0000 1.0000
21.9800 853.0000 1.0000
21.9900 839.0000 1.0000
22.0000 853.0000 1.0000
22.0100 841.0000 1.0000
22.0200 847.0000 1.0000
22.0300 837.0000 1.0000
22.0400 825.0000 1.0000
22.0500 820.0000 1.0000
22.0600 842.0000 1.0000
22.0700 803.0000 1.0000
22.0800 833.0000 1.0000
22.0900 788.0000 1.0000
22.1000 821.0000 1.0000
22.1100 831.0000 1.0000
22.1200 837.0000 1.0000
22.1300 830.0000 1.0000
22.1400 849.0000 1.0000
22.1500 809.0000 1.0000
22.1600 852.0000 1.0000
22.1700 839.0000 1.0000
22.1800 765.0000 1.0000
22.1900 815.0000 1.0000
22.2000 793.0000 1.0000
22.2100 814.0000 1.0000
22.2200 798.0000 1.0000
22.2300 799.0000 1.0000
22.2400 820.0000 1.0000
22.2500 854.0000 1.0000
22.2600 789.0000 1.0000
22.2700 834.0000 1.0000
22.2800 811.0000 1.0000
22.2900 842.0000 1.0000
22.3000 789.0000 1.0000
22.3100 806.0000 1.0000
22.3200 826.0000 1.0000
22.3300 821.0000 1.0000
22.3400 829.0000 1.0000
22.3500 802.0000 1.0000
22.3600 806.0000 1.0000
22.3700 741.0000 1.0000
22.3800 770.0000 1.0000
22.3900 765.0000 1.0000
22.4000 778.0000 1.0000
22.4100 825.0000 1.0000
22.4200 831.0000 1.0000
22.4300 829.0000 1.0000
22.4400 832.0000 1.0000
22.4500 810.0000 1.0000
22.4600 826.0000 1.0000
22.4700 802.0000 1.0000
22.4800 790.0000 1.0000
22.4900 762.0000 1.0000
22.5000 761.0000 1.0000
22.5100 795.0000 1.0000
22.5200 781.0000 1.0000
22.5300 800.0000 1.0000
22.5400 805.0000 1.0000
22.5500 787.0000 1.0000
22.5600 796.0000 1.0000
22.5700 814.0000 1.0000
22.5800 820.0000 1.0000
22.5900 822.0000 1.0000
22.6000 815.0000 1.0000
22.6100 835.0000 1.0000
22.6200 816.0000 1.0000
22.6300 811.0000 1.0000
22.6400 776.0000 1.0000
22.6500 820.0000 1.0000
22.6600 813.0000 1.0000
22.6700 795.0000 1.0000
22.6800 788.0000 1.0000
22.6900 811.0000 1.0000
22.7000 793.0000 1.0000
22.7100 791.0000 1.0000
22.7200 809.0000 1.0000
22.7300 789.0000 1.0000
22.7400 773.0000 1.0000
22.7500 848.0000 1.0000
22.7600 840.0000 1.0000
22.7700 837.0000 1.0000
22.7800 860.0000 1.0000
22.7900 796.0000 1.0000
22.8000 803.0000 1.0000
22.8100 852.0000 1.0000
22.8200 812.0000 1.0000
22.8300 807.0000 1.0000
22.8400 807.0000 1.0000
22.8500 812.0000 1.0000
22.8600 781.0000 1.0000
22.8700 820.0000 1.0000
22.8800 798.0000 1.0000
22.8900 790.0000 1.0000
22.9000 787.0000 1.0000
22.9100 798.0000 1.0000
22.9200 745.0000 1.0000
22.9300 761.0000 1.0000
22.9400 849.0000 1.0000
22.9500 803.0000 1.0000
22.9600 822.0000 1.0000
22.9700 793.0000 1.0000
22.9800 793.0000 1.0000
22.9900 801.0000 1.0000
23.0000 737.0000 1.0000
23.0100 766.0000 1.0000
23.0200 782.0000 1.0000
23.0300 800.0000 1.0000
23.0400 792.0000 1.0000
23.0500 821.0000 1.0000
23.0600 809.0000 1.0000
23.0700 795.0000 1.0000
23.0800 803.0000 1.0000
23.0900 779.0000 1.0000
23.1000 796.0000 1.0000
23.1100 808.0000 1.0000
23.1200 756.0000 1.0000
23.1300 812.0000 1.0000
23.1400 795.0000 1.0000
23.1500 850.0000 1.0000
23.1600 838.0000 1.0000
23.1700 792.0000 1.0000
23.1800 847.0000 1.0000
23.1900 801.0000 1.0000
23.2000 784.0000 1.0000
23.2100 815.0000 1.0000
23.2200 843.0000 1.0000
23.2300 823.0000 1.0000
23.2400 818.0000 1.0000
23.2500 796.0000 1.0000
23.2600 823.0000 1.0000
23.2700 799.0000 1.0000
23.2800 809.0000 1.0000
23.2900 802.0000 1.0000
23.3000 780.0000 1.0000
23.3100 773.0000 1.0000
23.3200 810.0000 1.0000
23.3300 822.0000 1.0000
23.3400 816.0000 1.0000
23.3500 758.0000 1.0000
23.3600 798.0000 1.0000
23.3700 788.0000 1.0000
23.3800 773.0000 1.0000
23.3900 765.0000 1.0000
23.4000 745.0000 1.0000
23.4100 787.0000 1.0000
23.4200 818.0000 1.0000
23.4300 833.0000 1.0000
23.4400 791.0000 1.0000
23.4500 730.0000 1.0000
23.4600 768.0000 1.0000
23.4700 791.0000 1.0000
23.4800 816.0000 1.0000
23.4900 813.0000 1.0000
23.5000 788.0000 1.0000
23.5100 803.0000 1.0000
23.5200 801.0000 1.0000
23.5300 806.0000 1.0000
23.5400 802.0000 1.0000
23.5500 810.0000 1.0000
23.5600 800.0000 1.0000
23.5700 788.0000 1.0000
23.5800 792.0000 1.0000
23.5900 823.0000 1.0000
23.6000 809.0000 1.0000
23.6100 781.0000 1.0000
23.6200 860.0000 1.0000
23.6300 810.0000 1.0000
23.6400 815.0000 1.0000
23.6500 809.0000 1.0000
23.6600 779.0000 1.0000
23.6700 800.0000 1.0000
23.6800 800.0000 1.0000
23.6900 791.0000 1.0000
23.7000 800.0000 1.0000
23.7100 790.0000 1.0000
23.7200 789.0000 1.0000
23.7300 834.0000 1.0000
23.7400 861.0000 1.0000
23.7500 809.0000 1.0000
23.7600 776.0000 1.0000
23.7700 834.0000 1.0000
23.7800 777.0000 1.0000
23.7900 813.0000 1.0000
23.8000 820.0000 1.0000
23.8100 791.0000 1.0000
23.8200 818.0000 1.0000
23.8300 815.0000 1.0000
23.8400 816.0000 1.0000
23.8500 789.0000 1.0000
23.8600 809.0000 1.0000
23.8700 793.0000 1.0000
23.8800 830.0000 1.0000
23.8900 844.0000 1.0000
23.9000 833.0000 1.0000
23.9100 779.0000 1.0000
23.9200 783.0000 1.0000
23.9300 822.0000 1.0000
23.9400 837.0000 1.0000
23.9500 847.0000 1.0000
23.9600 804.0000 1.0000
23.9700 814.0000 1.0000
23.9800 847.0000 1.0000
23.9900 786.0000 1.0000
24.0000 820.0000 1.0000
24.0100 844.0000 1.0000
24.0200 853.0000 1.0000
24.0300 850.0000 1.0000
24.0400 836.0000 1.0000
24.0500 824.0000 1.0000
24.0600 853.0000 1.0000
24.0700 865.0000 1.0000
24.0800 849.0000 1.0000
24.0900 869.0000 1.0000
24.1000 900.0000 1.0000
24.1100 879.0000 1.0000
24.1200 926.0000 1.0000
24.1300 873.0000 1.0000
24.1400 919.0000 1.0000
24.1500 839.0000 1.0000
24.1600 841.0000 1.0000
24.1700 834.0000 1.0000
24.1800 913.0000 1.0000
24.1900 818.0000 1.0000
24.2000 812.0000 1.0000
24.2100 863.0000 1.0000
24.2200 860.0000 1.0000
24.2300 839.0000 1.0000
24.2400 833.0000 1.0000
24.2500 818.0000 1.0000
24.2600 768.0000 1.0000
24.2700 836.0000 1.0000
24.2800 772.0000 1.0000
24.2900 810.0000 1.0000
24.3000 807.0000 1.0000
24.3100 848.0000 1.0000
24.3200 813.0000 1.0000
24.3300 771.0000 1.0000
24.3400 822.0000 1.0000
24.3500 819.0000 1.0000
24.3600 741.0000 1.0000
24.3700 772.0000 1.0000
24.3800 797.0000 1.0000
24.3900 762.0000 1.0000
24.4000 811.0000 1.0000
24.4100 798.0000 1.0000
24.4200 795.0000 1.0000
24.4300 828.0000 1.0000
24.4400 826.0000 1.0000
24.4500 787.0000 1.0000
24.4600 773.0000 1.0000
24.4700 828.0000 1.0000
24.4800 836.0000 1.0000
24.4900 812.0000 1.0000
24.5000 776.0000 1.0000
24.5100 778.0000 1.0000
24.5200 822.0000 1.0000
24.5300 804.0000 1.0000
24.5400 798.0000 1.0000
24.5500 820.0000 1.0000
24.5600 775.0000 1.0000
24.5700 815.0000 1.0000
24.5800 781.0000 1.0000
24.5900 816.0000 1.0000
24.6000 782.0000 1.0000
24.6100 751.0000 1.0000
24.6200 760.0000 1.0000
24.6300 725.0000 1.0000
24.6400 740.0000 1.0000
24.6500 779.0000 1.0000
24.6600 780.0000 1.0000
24.6700 819.0000 1.0000
24.6800 752.0000 1.0000
24.6900 777.0000 1.0000
24.7000 810.0000 1.0000
24.7100 779.0000 1.0000
24.7200 775.0000 1.0000
24.7300 810.0000 1.0000
24.7400 799.0000 1.0000
24.7500 801.0000 1.0000
24.7600 781.0000 1.0000
24.7700 775.0000 1.0000
24.7800 801.0000 1.0000
24.7900 807.0000 1.0000
24.8000 736.0000 1.0000
24.8100 806.0000 1.0000
24.8200 788.0000 1.0000
24.8300 782.0000 1.0000
24.8400 772.0000 1.0000
24.8500 709.0000 1.0000
24.8600 770.0000 1.0000
24.8700 811.0000 1.0000
24.8800 776.0000 1.0000
24.8900 772.0000 1.0000
24.9000 807.0000 1.0000
24.9100 795.0000 1.0000
24.9200 768.0000 1.0000
24.9300 771.0000 1.0000
24.9400 735.0000 1.0000
24.9500 787.0000 1.0000
24.9600 773.0000 1.0000
24.9700 767.0000 1.0000
24.9800 782.0000 1.0000
24.9900 747.0000 1.0000
25.0000 793.0000 1.0000
25.0100 780.0000 1.0000
25.0200 732.0000 1.0000
25.0300 769.0000 1.0000
25.0400 770.0000 1.0000
25.0500 773.0000 1.0000
25.0600 776.0000 1.0000
25.0700 742.0000 1.0000
25.0800 728.0000 1.0000
25.0900 783.0000 1.0000
25.1000 758.0000 1.0000
25.1100 782.0000 1.0000
25.1200 796.0000 1.0000
25.1300 791.0000 1.0000
25.1400 777.0000 1.0000
25.1500 754.0000 1.0000
25.1600 751.0000 1.0000
25.1700 788.0000 1.0000
25.1800 773.0000 1.0000
25.1900 788.0000 1.0000
25.2000 804.0000 1.0000
25.2100 744.0000 1.0000
25.2200 735.0000 1.0000
25.2300 772.0000 1.0000
25.2400 806.0000 1.0000
25.2500 757.0000 1.0000
25.2600 745.0000 1.0000
25.2700 773.0000 1.0000
25.2800 782.0000 1.0000
25.2900 778.0000 1.0000
25.3000 802.0000 1.0000
25.3100 779.0000 1.0000
25.3200 778.0000 1.0000
25.3300 799.0000 1.0000
25.3400 769.0000 1.0000
25.3500 795.0000 1.0000
25.3600 753.0000 1.0000
25.3700 768.0000 1.0000
25.3800 801.0000 1.0000
25.3900 772.0000 1.0000
25.4000 787.0000 1.0000
25.4100 750.0000 1.0000
25.4200 778.0000 1.0000
25.4300 788.0000 1.0000
25.4400 781.0000 1.0000
25.4500 753.0000 1.0000
25.4600 767.0000 1.0000
25.4700 787.0000 1.0000
25.4800 791.0000 1.0000
25.4900 823.0000 1.0000
25.5000 744.0000 1.0000
25.5100 788.0000 1.0000
25.5200 769.0000 1.0000
25.5300 763.0000 1.0000
25.5400 757.0000 1.0000
25.5500 788.0000 1.0000
25.5600 804.0000 1.0000
25.5700 768.0000 1.0000
25.5800 790.0000 1.0000
25.5900 748.0000 1.0000
25.6000 764.0000 1.0000
25.6100 795.0000 1.0000
25.6200 796.0000 1.0000
25.6300 775.0000 1.0000
25.6400 771.0000 1.0000
25.6500 794.0000 1.0000
25.6600 777.0000 1.0000
25.6700 759.0000 1.0000
25.6800 746.0000 1.0000
25.6900 813.0000 1.0000
25.7000 777.0000 1.0000
25.7100 816.0000 1.0000
25.7200 833.0000 1.0000
25.7300 740.0000 1.0000
25.7400 753.0000 1.0000
25.7500 763.0000 1.0000
25.7600 773.0000 1.0000
25.7700 821.0000 1.0000
25.7800 807.0000 1.0000
25.7900 788.0000 1.0000
25.8000 812.0000 1.0000
25.8100 825.0000 1.0000
25.8200 833.0000 1.0000
25.8300 762.0000 1.0000
25.8400 799.0000 1.0000
25.8500 805.0000 1.0000
25.8600 833.0000 1.0000
25.8700 778.0000 1.0000
25.8800 819.0000 1.0000
25.8900 814.0000 1.0000
25.9000 806.0000 1.0000
25.9100 806.0000 1.0000
25.9200 833.0000 1.0000
25.9300 827.0000 1.0000
25.9400 841.0000 1.0000
25.9500 850.0000 1.0000
25.9600 817.0000 1.0000
25.9700 820.0000 1.0000
25.9800 812.0000 1.0000
25.9900 838.0000 1.0000
26.0000 830.0000 1.0000
26.0100 852.0000 1.0000
26.0200 827.0000 1.0000
26.0300 866.0000 1.0000
26.0400 841.0000 1.0000
26.0500 897.0000 1.0000
26.0600 877.0000 1.0000
26.0700 894.0000 1.0000
26.0800 851.0000 1.0000
26.0900 881.0000 1.0000
26.1000 850.0000 1.0000
26.1100 956.0000 1.0000
26.1200 946.0000 1.0000
26.1300 895.0000 1.0000
26.1400 931.0000 1.0000
26.1500 962.0000 1.0000
26.1600 961.0000 1.0000
26.1700 994.0000 1.0000
26.1800 1038.0000 1.0000
26.1900 1057.0000 1.0000
26.2000 1020.0000 1.0000
26.2100 1052.0000 1.0000
26.2200 1075.0000 1.0000
26.2300 1092.0000 1.0000
26.2400 1172.0000 1.0000
26.2500 1190.0000 1.0000
26.2600 1162.0000 1.0000
26.2700 1257.0000 1.0000
26.2800 1351.0000 1.0000
26.2900 1305.0000 1.0000
26.3000 1375.0000 1.0000
26.3100 1382.0000 1.0000
26.3200 1530.0000 1.0000
26.3300 1641.0000 1.0000
26.3400 1654.0000 1.0000
26.3500 1675.0000 1.0000
26.3600 1802.0000 1.0000
26.3700 1962.0000 1.0000
26.3800 2025.0000 1.0000
26.3900 2091.0000 1.0000
26.4000 2258.0000 1.0000
26.4100 2367.0000 1.0000
26.4200 2582.0000 1.0000
26.4300 2667.0000 1.0000
26.4400 2754.0000 1.0000
26.4500 2740.0000 1.0000
26.4600 2802.0000 1.0000
26.4700 2808.0000 1.0000
26.4800 2744.0000 1.0000
26.4900 2809.0000 1.0000
26.5000 2673.0000 1.0000
26.5100 2593.0000 1.0000
26.5200 2539.0000 1.0000
26.5300 2246.0000 1.0000
26.5400 2214.0000 1.0000
26.5500 2095.0000 1.0000
26.5600 2022.0000 1.0000
26.5700 1881.0000 1.0000
26.5800 1791.0000 1.0000
26.5900 1687.0000 1.0000
26.6000 1551.0000 1.0000
26.6100 1492.0000 1.0000
26.6200 1508.0000 1.0000
26.6300 1384.0000 1.0000
26.6400 1294.0000 1.0000
26.6500 1215.0000 1.0000
26.6600 1255.0000 1.0000
26.6700 1240.0000 1.0000
26.6800 1186.0000 1.0000
26.6900 1150.0000 1.0000
26.7000 1130.0000 1.0000
26.7100 1078.0000 1.0000
26.7200 1058.0000 1.0000
26.7300 1029.0000 1.0000
26.7400 992.0000 1.0000
26.7500 932.0000 1.0000
26.7600 945.0000 1.0000
26.7700 945.0000 1.0000
26.7800 927.0000 1.0000
26.7900 955.0000 1.0000
26.8000 914.0000 1.0000
26.8100 892.0000 1.0000
26.8200 874.0000 1.0000
26.8300 876.0000 1.0000
26.8400 877.0000 1.0000
26.8500 905.0000 1.0000
26.8600 844.0000 1.0000
26.8700 810.0000 1.0000
26.8800 857.0000 1.0000
26.8900 797.0000 1.0000
26.9000 820.0000 1.0000
26.9100 830.0000 1.0000
26.9200 827.0000 1.0000
26.9300 781.0000 1.0000
26.9400 795.0000 1.0000
26.9500 796.0000 1.0000
26.9600 817.0000 1.0000
26.9700 840.0000 1.0000
26.9800 789.0000 1.0000
26.9900 791.0000 1.0000
27.0000 777.0000 1.0000
27.0100 792.0000 1.0000
27.0200 798.0000 1.0000
27.0300 774.0000 1.0000
27.0400 789.0000 1.0000
27.0500 767.0000 1.0000
27.0600 774.0000 1.0000
27.0700 751.0000 1.0000
27.0800 757.0000 1.0000
27.0900 777.0000 1.0000
27.1000 769.0000 1.0000
27.1100 790.0000 1.0000
27.1200 739.0000 1.0000
27.1300 739.0000 1.0000
27.1400 716.0000 1.0000
27.1500 772.0000 1.0000
27.1600 762.0000 1.0000
27.1700 752.0000 1.0000
27.1800 751.0000 1.0000
27.1900 728.0000 1.0000
27.2000 752.0000 1.0000
27.2100 745.0000 1.0000
27.2200 774.0000 1.0000
27.2300 696.0000 1.0000
27.2400 686.0000 1.0000
27.2500 716.0000 1.0000
27.2600 742.0000 1.0000
27.2700 712.0000 1.0000
27.2800 763.0000 1.0000
27.2900 719.0000 1.0000
27.3000 731.0000 1.0000
27.3100 738.0000 1.0000
27.3200 703.0000 1.0000
27.3300 725.0000 1.0000
27.3400 723.0000 1.0000
27.3500 752.0000 1.0000
27.3600 716.0000 1.0000
27.3700 701.0000 1.0000
27.3800 703.0000 1.0000
27.3900 715.0000 1.0000
27.4000 739.0000 1.0000
27.4100 707.0000 1.0000
27.4200 669.0000 1.0000
27.4300 713.0000 1.0000
27.4400 681.0000 1.0000
27.4500 678.0000 1.0000
27.4600 689.0000 1.0000
27.4700 643.0000 1.0000
27.4800 697.0000 1.0000
27.4900 679.0000 1.0000
27.5000 709.0000 1.0000
27.5100 729.0000 1.0000
27.5200 704.0000 1.0000
27.5300 727.0000 1.0000
27.5400 722.0000 1.0000
27.5500 686.0000 1.0000
27.5600 678.0000 1.0000
27.5700 690.0000 1.0000
27.5800 705.0000 1.0000
27.5900 712.0000 1.0000
27.6000 687.0000 1.0000
27.6100 711.0000 1.0000
27.6200 658.0000 1.0000
27.6300 679.0000 1.0000
27.6400 690.0000 1.0000
27.6500 735.0000 1.0000
27.6600 735.0000 1.0000
27.6700 721.0000 1.0000
27.6800 725.0000 1.0000
27.6900 651.0000 1.0000
27.7000 744.0000 1.0000
27.7100 734.0000 1.0000
27.7200 679.0000 1.0000
27.7300 766.0000 1.0000
27.7400 724.0000 1.0000
27.7500 749.0000 1.0000
27.7600 702.0000 1.0000
27.7700 703.0000 1.0000
27.7800 714.0000 1.0000
27.7900 654.0000 1.0000
27.8000 685.0000 1.0000
27.8100 676.0000 1.0000
27.8200 682.0000 1.0000
27.8300 702.0000 1.0000
27.8400 716.0000 1.0000
27.8500 700.0000 1.0000
27.8600 704.0000 1.0000
27.8700 740.0000 1.0000
27.8800 711.0000 1.0000
27.8900 653.0000 1.0000
27.9000 670.0000 1.0000
27.9100 706.0000 1.0000
27.9200 671.0000 1.0000
27.9300 686.0000 1.0000
27.9400 726.0000 1.0000
27.9500 684.0000 1.0000
27.9600 688.0000 1.0000
27.9700 693.0000 1.0000
27.9800 690.0000 1.0000
27.9900 702.0000 1.0000
28.0000 705.0000 1.0000
28.0100 669.0000 1.0000
28.0200 689.0000 1.0000
28.0300 691.0000 1.0000
28.0400 676.0000 1.0000
28.0500 663.0000 1.0000
28.0600 642.0000 1.0000
28.0700 654.0000 1.0000
28.0800 656.0000 1.0000
28.0900 689.0000 1.0000
28.1000 691.0000 1.0000
28.1100 674.0000 1.0000
28.1200 670.0000 1.0000
28.1300 673.0000 1.0000
28.1400 652.0000 1.0000
28.1500 650.0000 1.0000
28.1600 687.0000 1.0000
28.1700 670.0000 1.0000
28.1800 637.0000 1.0000
28.1900 657.0000 1.0000
28.2000 671.0000 1.0000
28.2100 683.0000 1.0000
28.2200 672.0000 1.0000
28.2300 665.0000 1.0000
28.2400 650.0000 1.0000
28.2500 677.0000 1.0000
28.2600 699.0000 1.0000
28.2700 650.0000 1.0000
28.2800 703.0000 1.0000
28.2900 666.0000 1.0000
28.3000 666.0000 1.0000
28.3100 693.0000 1.0000
28.3200 658.0000 1.0000
28.3300 669.0000 1.0000
28.3400 660.0000 1.0000
28.3500 644.0000 1.0000
28.3600 650.0000 1.0000
28.3700 656.0000 1.0000
28.3800 662.0000 1.0000
28.3900 664.0000 1.0000
28.4000 691.0000 1.0000
28.4100 651.0000 1.0000
28.4200 618.0000 1.0000
28.4300 659.0000 1.0000
28.4400 673.0000 1.0000
28.4500 646.0000 1.0000
28.4600 676.0000 1.0000
28.4700 680.0000 1.0000
28.4800 637.0000 1.0000
28.4900 692.0000 1.0000
28.5000 664.0000 1.0000
28.5100 635.0000 1.0000
28.5200 667.0000 1.0000
28.5300 720.0000 1.0000
28.5400 736.0000 1.0000
28.5500 680.0000 1.0000
28.5600 672.0000 1.0000
28.5700 660.0000 1.0000
28.5800 659.0000 1.0000
28.5900 679.0000 1.0000
28.6000 677.0000 1.0000
28.6100 678.0000 1.0000
28.6200 693.0000 1.0000
28.6300 666.0000 1.0000
28.6400 696.0000 1.0000
28.6500 655.0000 1.0000
28.6600 654.0000 1.0000
28.6700 664.0000 1.0000
28.6800 644.0000 1.0000
28.6900 661.0000 1.0000
28.7000 653.0000 1.0000
28.7100 648.0000 1.0000
28.7200 687.0000 1.0000
28.7300 604.0000 1.0000
28.7400 648.0000 1.0000
28.7500 632.0000 1.0000
28.7600 616.0000 1.0000
28.7700 664.0000 1.0000
28.7800 673.0000 1.0000
28.7900 690.0000 1.0000
28.8000 683.0000 1.0000
28.8100 704.0000 1.0000
28.8200 665.0000 1.0000
28.8300 682.0000 1.0000
28.8400 676.0000 1.0000
28.8500 668.0000 1.0000
28.8600 641.0000 1.0000
28.8700 594.0000 1.0000
28.8800 656.0000 1.0000
28.8900 632.0000 1.0000
28.9000 620.0000 1.0000
28.9100 668.0000 1.0000
28.9200 676.0000 1.0000
28.9300 618.0000 1.0000
28.9400 649.0000 1.0000
28.9500 652.0000 1.0000
28.9600 656.0000 1.0000
28.9700 645.0000 1.0000
28.9800 625.0000 1.0000
28.9900 674.0000 1.0000
29.0000 682.0000 1.0000
29.0100 623.0000 1.0000
29.0200 628.0000 1.0000
29.0300 618.0000 1.0000
29.0400 658.0000 1.0000
29.0500 630.0000 1.0000
29.0600 670.0000 1.0000
29.0700 634.0000 1.0000
29.0800 659.0000 1.0000
29.0900 674.0000 1.0000
29.1000 600.0000 1.0000
29.1100 612.0000 1.0000
29.1200 653.0000 1.0000
29.1300 658.0000 1.0000
29.1400 633.0000 1.0000
29.1500 614.0000 1.0000
29.1600 637.0000 1.0000
29.1700 651.0000 1.0000
29.1800 670.0000 1.0000
29.1900 608.0000 1.0000
29.2000 617.0000 1.0000
29.2100 614.0000 1.0000
29.2200 609.0000 1.0000
29.2300 638.0000 1.0000
29.2400 670.0000 1.0000
29.2500 659.0000 1.0000
29.2600 626.0000 1.0000
29.2700 615.0000 1.0000
29.2800 581.0000 1.0000
29.2900 644.0000 1.0000
29.3000 645.0000 1.0000
29.3100 638.0000 1.0000
29.3200 663.0000 1.0000
29.3300 654.0000 1.0000
29.3400 619.0000 1.0000
29.3500 682.0000 1.0000
29.3600 602.0000 1.0000
29.3700 635.0000 1.0000
29.3800 618.0000 1.0000
29.3900 604.0000 1.0000
29.4000 605.0000 1.0000
29.4100 597.0000 1.0000
29.4200 601.0000 1.0000
29.4300 619.0000 1.0000
29.4400 667.0000 1.0000
29.4500 644.0000 1.0000
29.4600 655.0000 1.0000
29.4700 610.0000 1.0000
29.4800 613.0000 1.0000
29.4900 621.0000 1.0000
29.5000 664.0000 1.0000
29.5100 630.0000 1.0000
29.5200 621.0000 1.0000
29.5300 637.0000 1.0000
29.5400 624.0000 1.0000
29.5500 622.0000 1.0000
29.5600 651.0000 1.0000
29.5700 607.0000 1.0000
29.5800 638.0000 1.0000
29.5900 588.0000 1.0000
29.6000 602.0000 1.0000
29.6100 639.0000 1.0000
29.6200 610.0000 1.0000
29.6300 599.0000 1.0000
29.6400 629.0000 1.0000
29.6500 650.0000 1.0000
29.6600 636.0000 1.0000
29.6700 621.0000 1.0000
29.6800 631.0000 1.0000
29.6900 627.0000 1.0000
29.7000 625.0000 1.0000
29.7100 600.0000 1.0000
29.7200 628.0000 1.0000
29.7300 607.0000 1.0000
29.7400 610.0000 1.0000
29.7500 608.0000 1.0000
29.7600 644.0000 1.0000
29.7700 613.0000 1.0000
29.7800 653.0000 1.0000
29.7900 659.0000 1.0000
29.8000 614.0000 1.0000
29.8100 609.0000 1.0000
29.8200 627.0000 1.0000
29.8300 612.0000 1.0000
29.8400 625.0000 1.0000
29.8500 626.0000 1.0000
29.8600 620.0000 1.0000
29.8700 600.0000 1.0000
29.8800 631.0000 1.0000
29.8900 574.0000 1.0000
29.9000 623.0000 1.0000
29.9100 653.0000 1.0000
29.9200 631.0000 1.0000
29.9300 625.0000 1.0000
29.9400 623.0000 1.0000
29.9500 581.0000 1.0000
29.9600 640.0000 1.0000
29.9700 604.0000 1.0000
29.9800 596.0000 1.0000
29.9900 604.0000 1.0000
30.0000 631.0000 1.0000
30.0100 586.0000 1.0000
30.0200 623.0000 1.0000
30.0300 617.0000 1.0000
30.0400 630.0000 1.0000
30.0500 625.0000 1.0000
30.0600 606.0000 1.0000
30.0700 632.0000 1.0000
30.0800 621.0000 1.0000
30.0900 623.0000 1.0000
30.1000 630.0000 1.0000
30.1100 592.0000 1.0000
30.1200 607.0000 1.0000
30.1300 621.0000 1.0000
30.1400 588.0000 1.0000
30.1500 618.0000 1.0000
30.1600 629.0000 1.0000
30.1700 615.0000 1.0000
30.1800 622.0000 1.0000
30.1900 633.0000 1.0000
30.2000 625.0000 1.0000
30.2100 571.0000 1.0000
30.2200 659.0000 1.0000
30.2300 623.0000 1.0000
30.2400 593.0000 1.0000
30.2500 631.0000 1.0000
30.2600 616.0000 1.0000
30.2700 633.0000 1.0000
30.2800 613.0000 1.0000
30.2900 593.0000 1.0000
30.3000 600.0000 1.0000
30.3100 628.0000 1.0000
30.3200 599.0000 1.0000
30.3300 604.0000 1.0000
30.3400 610.0000 1.0000
30.3500 615.0000 1.0000
30.3600 622.0000 1.0000
30.3700 644.0000 1.0000
30.3800 627.0000 1.0000
30.3900 609.0000 1.0000
30.4000 598.0000 1.0000
30.4100 607.0000 1.0000
30.4200 623.0000 1.0000
30.4300 628.0000 1.0000
30.4400 584.0000 1.0000
30.4500 623.0000 1.0000
30.4600 581.0000 1.0000
30.4700 630.0000 1.0000
30.4800 642.0000 1.0000
30.4900 633.0000 1.0000
30.5000 623.0000 1.0000
30.5100 603.0000 1.0000
30.5200 612.0000 1.0000
30.5300 569.0000 1.0000
30.5400 584.0000 1.0000
30.5500 623.0000 1.0000
30.5600 590.0000 1.0000
30.5700 582.0000 1.0000
30.5800 589.0000 1.0000
30.5900 617.0000 1.0000
30.6000 581.0000 1.0000
30.6100 576.0000 1.0000
30.6200 610.0000 1.0000
30.6300 600.0000 1.0000
30.6400 604.0000 1.0000
30.6500 603.0000 1.0000
30.6600 589.0000 1.0000
30.6700 606.0000 1.0000
30.6800 597.0000 1.0000
30.6900 615.0000 1.0000
30.7000 573.0000 1.0000
30.7100 599.0000 1.0000
30.7200 614.0000 1.0000
30.7300 628.0000 1.0000
30.7400 588.0000 1.0000
30.7500 560.0000 1.0000
30.7600 569.0000 1.0000
30.7700 574.0000 1.0000
30.7800 620.0000 1.0000
30.7900 592.0000 1.0000
30.8000 584.0000 1.0000
30.8100 596.0000 1.0000
30.8200 594.0000 1.0000
30.8300 581.0000 1.0000
30.8400 627.0000 1.0000
30.8500 585.0000 1.0000
30.8600 586.0000 1.0000
30.8700 597.0000 1.0000
30.8800 618.0000 1.0000
30.8900 609.0000 1.0000
30.9000 635.0000 1.0000
30.9100 630.0000 1.0000
30.9200 598.0000 1.0000
30.9300 602.0000 1.0000
30.9400 567.0000 1.0000
30.9500 596.0000 1.0000
30.9600 588.0000 1.0000
30.9700 586.0000 1.0000
30.9800 564.0000 1.0000
30.9900 622.0000 1.0000
31.0000 566.0000 1.0000
31.0100 595.0000 1.0000
31.0200 597.0000 1.0000
31.0300 626.0000 1.0000
31.0400 576.0000 1.0000
31.0500 625.0000 1.0000
31.0600 627.0000 1.0000
31.0700 588.0000 1.0000
31.0800 589.0000 1.0000
31.0900 569.0000 1.0000
31.1000 550.0000 1.0000
31.1100 592.0000 1.0000
31.1200 589.0000 1.0000
31.1300 614.0000 1.0000
31.1400 641.0000 1.0000
31.1500 626.0000 1.0000
31.1600 586.0000 1.0000
31.1700 604.0000 1.0000
31.1800 597.0000 1.0000
31.1900 593.0000 1.0000
31.2000 604.0000 1.0000
31.2100 597.0000 1.0000
31.2200 589.0000 1.0000
31.2300 617.0000 1.0000
31.2400 588.0000 1.0000
31.2500 556.0000 1.0000
31.2600 590.0000 1.0000
31.2700 586.0000 1.0000
31.2800 539.0000 1.0000
31.2900 591.0000 1.0000
31.3000 566.0000 1.0000
31.3100 635.0000 1.0000
31.3200 609.0000 1.0000
31.3300 609.0000 1.0000
31.3400 565.0000 1.0000
31.3500 544.0000 1.0000
31.3600 590.0000 1.0000
31.3700 586.0000 1.0000
31.3800 616.0000 1.0000
31.3900 617.0000 1.0000
31.4000 610.0000 1.0000
31.4100 624.0000 1.0000
31.4200 568.0000 1.0000
31.4300 569.0000 1.0000
31.4400 549.0000 1.0000
31.4500 568.0000 1.0000
31.4600 556.0000 1.0000
31.4700 578.0000 1.0000
31.4800 605.0000 1.0000
31.4900 619.0000 1.0000
31.5000 579.0000 1.0000
31.5100 632.0000 1.0000
31.5200 566.0000 1.0000
31.5300 536.0000 1.0000
31.5400 569.0000 1.0000
31.5500 590.0000 1.0000
31.5600 571.0000 1.0000
31.5700 566.0000 1.0000
31.5800 590.0000 1.0000
31.5900 585.0000 1.0000
31.6000 563.0000 1.0000
31.6100 581.0000 1.0000
31.6200 575.0000 1.0000
31.6300 557.0000 1.0000
31.6400 619.0000 1.0000
31.6500 600.0000 1.0000
31.6600 580.0000 1.0000
31.6700 574.0000 1.0000
31.6800 590.0000 1.0000
31.6900 582.0000 1.0000
31.7000 571.0000 1.0000
31.7100 584.0000 1.0000
31.7200 604.0000 1.0000
31.7300 595.0000 1.0000
31.7400 563.0000 1.0000
31.7500 560.0000 1.0000
31.7600 602.0000 1.0000
31.7700 571.0000 1.0000
31.7800 540.0000 1.0000
31.7900 560.0000 1.0000
31.8000 566.0000 1.0000
31.8100 555.0000 1.0000
31.8200 572.0000 1.0000
31.8300 608.0000 1.0000
31.8400 572.0000 1.0000
31.8500 574.0000 1.0000
31.8600 581.0000 1.0000
31.8700 591.0000 1.0000
31.8800 555.0000 1.0000
31.8900 546.0000 1.0000
31.9000 579.0000 1.0000
31.9100 582.0000 1.0000
31.9200 579.0000 1.0000
31.9300 611.0000 1.0000
31.9400 547.0000 1.0000
31.9500 584.0000 1.0000
31.9600 572.0000 1.0000
31.9700 596.0000 1.0000
31.9800 558.0000 1.0000
31.9900 558.0000 1.0000
32.0000 561.0000 1.0000
32.0100 592.0000 1.0000
32.0200 566.0000 1.0000
32.0300 599.0000 1.0000
32.0400 579.0000 1.0000
32.0500 579.0000 1.0000
32.0600 587.0000 1.0000
32.0700 571.0000 1.0000
32.0800 534.0000 1.0000
32.0900 561.0000 1.0000
32.1000 579.0000 1.0000
32.1100 570.0000 1.0000
32.1200 521.0000 1.0000
32.1300 568.0000 1.0000
32.1400 540.0000 1.0000
32.1500 571.0000 1.0000
32.1600 560.0000 1.0000
32.1700 577.0000 1.0000
32.1800 558.0000 1.0000
32.1900 543.0000 1.0000
32.2000 553.0000 1.0000
32.2100 550.0000 1.0000
32.2200 578.0000 1.0000
32.2300 555.0000 1.0000
32.2400 562.0000 1.0000
32.2500 585.0000 1.0000
32.2600 575.0000 1.0000
32.2700 580.0000 1.0000
32.2800 554.0000 1.0000
32.2900 552.0000 1.0000
32.3000 571.0000 1.0000
32.3100 548.0000 1.0000
32.3200 519.0000 1.0000
32.3300 558.0000 1.0000
32.3400 551.0000 1.0000
32.3500 556.0000 1.0000
32.3600 546.0000 1.0000
32.3700 561.0000 1.0000
32.3800 542.0000 1.0000
32.3900 593.0000 1.0000
32.4000 543.0000 1.0000
32.4100 570.0000 1.0000
32.4200 548.0000 1.0000
32.4300 593.0000 1.0000
32.4400 533.0000 1.0000
32.4500 566.0000 1.0000
32.4600 590.0000 1.0000
32.4700 540.0000 1.0000
32.4800 536.0000 1.0000
32.4900 526.0000 1.0000
32.5000 561.0000 1.0000
32.5100 563.0000 1.0000
32.5200 536.0000 1.0000
32.5300 570.0000 1.0000
32.5400 561.0000 1.0000
32.5500 551.0000 1.0000
32.5600 567.0000 1.0000
32.5700 579.0000 1.0000
32.5800 581.0000 1.0000
32.5900 536.0000 1.0000
32.6000 585.0000 1.0000
32.6100 552.0000 1.0000
32.6200 582.0000 1.0000
32.6300 544.0000 1.0000
32.6400 546.0000 1.0000
32.6500 545.0000 1.0000
32.6600 550.0000 1.0000
32.6700 569.0000 1.0000
32.6800 570.0000 1.0000
32.6900 568.0000 1.0000
32.7000 580.0000 1.0000
32.7100 562.0000 1.0000
32.7200 550.0000 1.0000
32.7300 559.0000 1.0000
32.7400 584.0000 1.0000
32.7500 545.0000 1.0000
32.7600 561.0000 1.0000
32.7700 528.0000 1.0000
32.7800 578.0000 1.0000
32.7900 565.0000 1.0000
32.8000 574.0000 1.0000
32.8100 551.0000 1.0000
32.8200 550.0000 1.0000
32.8300 555.0000 1.0000
32.8400 559.0000 1.0000
32.8500 558.0000 1.0000
32.8600 528.0000 1.0000
32.8700 555.0000 1.0000
32.8800 555.0000 1.0000
32.8900 576.0000 1.0000
32.9000 557.0000 1.0000
32.9100 545.0000 1.0000
32.9200 606.0000 1.0000
32.9300 577.0000 1.0000
32.9400 565.0000 1.0000
32.9500 545.0000 1.0000
32.9600 594.0000 1.0000
32.9700 614.0000 1.0000
32.9800 593.0000 1.0000
32.9900 555.0000 1.0000
33.0000 583.0000 1.0000
33.0100 593.0000 1.0000
33.0200 581.0000 1.0000
33.0300 641.0000 1.0000
33.0400 615.0000 1.0000
33.0500 657.0000 1.0000
33.0600 661.0000 1.0000
33.0700 638.0000 1.0000
33.0800 670.0000 1.0000
33.0900 680.0000 1.0000
33.1000 679.0000 1.0000
33.1100 682.0000 1.0000
33.1200 682.0000 1.0000
33.1300 713.0000 1.0000
33.1400 674.0000 1.0000
33.1500 678.0000 1.0000
33.1600 696.0000 1.0000
33.1700 672.0000 1.0000
33.1800 670.0000 1.0000
33.1900 689.0000 1.0000
33.2000 640.0000 1.0000
33.2100 640.0000 1.0000
33.2200 666.0000 1.0000
33.2300 642.0000 1.0000
33.2400 644.0000 1.0000
33.2500 605.0000 1.0000
33.2600 613.0000 1.0000
33.2700 621.0000 1.0000
33.2800 628.0000 1.0000
33.2900 588.0000 1.0000
33.3000 596.0000 1.0000
33.3100 616.0000 1.0000
33.3200 653.0000 1.0000
33.3300 630.0000 1.0000
33.3400 652.0000 1.0000
33.3500 637.0000 1.0000
33.3600 621.0000 1.0000
33.3700 629.0000 1.0000
33.3800 626.0000 1.0000
33.3900 634.0000 1.0000
33.4000 629.0000 1.0000
33.4100 611.0000 1.0000
33.4200 695.0000 1.0000
33.4300 684.0000 1.0000
33.4400 696.0000 1.0000
33.4500 706.0000 1.0000
33.4600 694.0000 1.0000
33.4700 705.0000 1.0000
33.4800 705.0000 1.0000
33.4900 780.0000 1.0000
33.5000 759.0000 1.0000
33.5100 799.0000 1.0000
33.5200 813.0000 1.0000
33.5300 858.0000 1.0000
33.5400 849.0000 1.0000
33.5500 906.0000 1.0000
33.5600 916.0000 1.0000
33.5700 947.0000 1.0000
33.5800 1070.0000 1.0000
33.5900 1050.0000 1.0000
33.6000 1105.0000 1.0000
33.6100 1167.0000 1.0000
33.6200 1198.0000 1.0000
33.6300 1278.0000 1.0000
33.6400 1340.0000 1.0000
33.6500 1351.0000 1.0000
33.6600 1339.0000 1.0000
33.6700 1447.0000 1.0000
33.6800 1424.0000 1.0000
33.6900 1336.0000 1.0000
33.7000 1281.0000 1.0000
33.7100 1285.0000 1.0000
33.7200 1280.0000 1.0000
33.7300 1273.0000 1.0000
33.7400 1177.0000 1.0000
33.7500 1221.0000 1.0000
33.7600 1155.0000 1.0000
33.7700 1077.0000 1.0000
33.7800 1036.0000 1.0000
33.7900 1027.0000 1.0000
33.8000 973.0000 1.0000
33.8100 911.0000 1.0000
33.8200 868.0000 1.0000
33.8300 865.0000 1.0000
33.8400 827.0000 1.0000
33.8500 828.0000 1.0000
33.8600 793.0000 1.0000
33.8700 793.0000 1.0000
33.8800 726.0000 1.0000
33.8900 748.0000 1.0000
33.9000 714.0000 1.0000
33.9100 752.0000 1.0000
33.9200 723.0000 1.0000
33.9300 690.0000 1.0000
33.9400 645.0000 1.0000
33.9500 688.0000 1.0000
33.9600 679.0000 1.0000
33.9700 681.0000 1.0000
33.9800 641.0000 1.0000
33.9900 627.0000 1.0000
34.0000 606.0000 1.0000
34.0100 663.0000 1.0000
34.0200 616.0000 1.0000
34.0300 636.0000 1.0000
34.0400 597.0000 1.0000
34.0500 589.0000 1.0000
34.0600 578.0000 1.0000
34.0700 574.0000 1.0000
34.0800 556.0000 1.0000
34.0900 558.0000 1.0000
34.1000 570.0000 1.0000
34.1100 585.0000 1.0000
34.1200 548.0000 1.0000
34.1300 560.0000 1.0000
34.1400 545.0000 1.0000
34.1500 530.0000 1.0000
34.1600 568.0000 1.0000
34.1700 584.0000 1.0000
34.1800 595.0000 1.0000
34.1900 555.0000 1.0000
34.2000 522.0000 1.0000
34.2100 524.0000 1.0000
34.2200 537.0000 1.0000
34.2300 505.0000 1.0000
34.2400 491.0000 1.0000
34.2500 556.0000 1.0000
34.2600 498.0000 1.0000
34.2700 541.0000 1.0000
34.2800 557.0000 1.0000
34.2900 521.0000 1.0000
34.3000 562.0000 1.0000
34.3100 516.0000 1.0000
34.3200 495.0000 1.0000
34.3300 523.0000 1.0000
34.3400 492.0000 1.0000
34.3500 495.0000 1.0000
34.3600 529.0000 1.0000
34.3700 496.0000 1.0000
34.3800 497.0000 1.0000
34.3900 492.0000 1.0000
34.4000 514.0000 1.0000
34.4100 525.0000 1.0000
34.4200 505.0000 1.0000
34.4300 561.0000 1.0000
34.4400 572.0000 1.0000
34.4500 485.0000 1.0000
34.4600 507.0000 1.0000
34.4700 532.0000 1.0000
34.4800 499.0000 1.0000
34.4900 542.0000 1.0000
34.5000 541.0000 1.0000
34.5100 530.0000 1.0000
34.5200 489.0000 1.0000
34.5300 516.0000 1.0000
34.5400 515.0000 1.0000
34.5500 517.0000 1.0000
34.5600 483.0000 1.0000
34.5700 518.0000 1.0000
34.5800 531.0000 1.0000
34.5900 531.0000 1.0000
34.6000 488.0000 1.0000
34.6100 520.0000 1.0000
34.6200 511.0000 1.0000
34.6300 513.0000 1.0000
34.6400 459.0000 1.0000
34.6500 473.0000 1.0000
34.6600 487.0000 1.0000
34.6700 508.0000 1.0000
34.6800 542.0000 1.0000
34.6900 522.0000 1.0000
34.7000 514.0000 1.0000
34.7100 513.0000 1.0000
34.7200 467.0000 1.0000
34.7300 517.0000 1.0000
34.7400 495.0000 1.0000
34.7500 485.0000 1.0000
34.7600 507.0000 1.0000
34.7700 484.0000 1.0000
34.7800 482.0000 1.0000
34.7900 458.0000 1.0000
34.8000 438.0000 1.0000
34.8100 460.0000 1.0000
34.8200 457.0000 1.0000
34.8300 520.0000 1.0000
34.8400 467.0000 1.0000
34.8500 500.0000 1.0000
34.8600 498.0000 1.0000
34.8700 489.0000 1.0000
34.8800 468.0000 1.0000
34.8900 502.0000 1.0000
34.9000 475.0000 1.0000
34.9100 484.0000 1.0000
34.9200 495.0000 1.0000
34.9300 493.0000 1.0000
34.9400 458.0000 1.0000
34.9500 457.0000 1.0000
34.9600 473.0000 1.0000
34.9700 466.0000 1.0000
34.9800 480.0000 1.0000
34.9900 480.0000 1.0000
35.0000 473.0000 1.0000
35.0100 492.0000 1.0000
35.0200 470.0000 1.0000
35.0300 435.0000 1.0000
35.0400 472.0000 1.0000
35.0500 501.0000 1.0000
35.0600 447.0000 1.0000
35.0700 458.0000 1.0000
35.0800 471.0000 1.0000
35.0900 464.0000 1.0000
35.1000 477.0000 1.0000
35.1100 471.0000 1.0000
35.1200 460.0000 1.0000
35.1300 469.0000 1.0000
35.1400 483.0000 1.0000
35.1500 483.0000 1.0000
35.1600 465.0000 1.0000
35.1700 478.0000 1.0000
35.1800 471.0000 1.0000
35.1900 466.0000 1.0000
35.2000 480.0000 1.0000
35.2100 475.0000 1.0000
35.2200 500.0000 1.0000
35.2300 478.0000 1.0000
35.2400 474.0000 1.0000
35.2500 463.0000 1.0000
35.2600 453.0000 1.0000
35.2700 475.0000 1.0000
35.2800 495.0000 1.0000
35.2900 503.0000 1.0000
35.3000 462.0000 1.0000
35.3100 496.0000 1.0000
35.3200 487.0000 1.0000
35.3300 482.0000 1.0000
35.3400 484.0000 1.0000
35.3500 466.0000 1.0000
35.3600 525.0000 1.0000
35.3700 511.0000 1.0000
35.3800 525.0000 1.0000
35.3900 547.0000 1.0000
35.4000 547.0000 1.0000
35.4100 529.0000 1.0000
35.4200 568.0000 1.0000
35.4300 579.0000 1.0000
35.4400 543.0000 1.0000
35.4500 609.0000 1.0000
35.4600 586.0000 1.0000
35.4700 573.0000 1.0000
35.4800 632.0000 1.0000
35.4900 684.0000 1.0000
35.5000 716.0000 1.0000
35.5100 753.0000 1.0000
35.5200 719.0000 1.0000
35.5300 775.0000 1.0000
35.5400 796.0000 1.0000
35.5500 878.0000 1.0000
35.5600 948.0000 1.0000
35.5700 982.0000 1.0000
35.5800 1016.0000 1.0000
35.5900 1028.0000 1.0000
35.6000 1015.0000 1.0000
35.6100 958.0000 1.0000
35.6200 952.0000 1.0000
35.6300 918.0000 1.0000
35.6400 898.0000 1.0000
35.6500 870.0000 1.0000
35.6600 838.0000 1.0000
35.6700 806.0000 1.0000
35.6800 794.0000 1.0000
35.6900 795.0000 1.0000
35.7000 750.0000 1.0000
35.7100 703.0000 1.0000
35.7200 691.0000 1.0000
35.7300 622.0000 1.0000
35.7400 571.0000 1.0000
35.7500 615.0000 1.0000
35.7600 537.0000 1.0000
35.7700 531.0000 1.0000
35.7800 538.0000 1.0000
35.7900 527.0000 1.0000
35.8000 499.0000 1.0000
35.8100 525.0000 1.0000
35.8200 536.0000 1.0000
35.8300 462.0000 1.0000
35.8400 509.0000 1.0000
35.8500 459.0000 1.0000
35.8600 443.0000 1.0000
35.8700 468.0000 1.0000
35.8800 482.0000 1.0000
35.8900 461.0000 1.0000
35.9000 461.0000 1.0000
35.9100 449.0000 1.0000
35.9200 480.0000 1.0000
35.9300 473.0000 1.0000
35.9400 462.0000 1.0000
35.9500 498.0000 1.0000
35.9600 476.0000 1.0000
35.9700 479.0000 1.0000
35.9800 453.0000 1.0000
35.9900 451.0000 1.0000
36.0000 463.0000 1.0000
36.0100 430.0000 1.0000
36.0200 441.0000 1.0000
36.0300 450.0000 1.0000
36.0400 423.0000 1.0000
36.0500 427.0000 1.0000
36.0600 459.0000 1.0000
36.0700 477.0000 1.0000
36.0800 425.0000 1.0000
36.0900 472.0000 1.0000
36.1000 435.0000 1.0000
36.1100 454.0000 1.0000
36.1200 454.0000 1.0000
36.1300 458.0000 1.0000
36.1400 441.0000 1.0000
36.1500 400.0000 1.0000
36.1600 457.0000 1.0000
36.1700 437.0000 1.0000
36.1800 476.0000 1.0000
36.1900 432.0000 1.0000
36.2000 464.0000 1.0000
36.2100 462.0000 1.0000
36.2200 460.0000 1.0000
36.2300 442.0000 1.0000
36.2400 439.0000 1.0000
36.2500 427.0000 1.0000
36.2600 441.0000 1.0000
36.2700 427.0000 1.0000
36.2800 436.0000 1.0000
36.2900 440.0000 1.0000
36.3000 461.0000 1.0000
36.3100 433.0000 1.0000
36.3200 422.0000 1.0000
36.3300 450.0000 1.0000
36.3400 444.0000 1.0000
36.3500 464.0000 1.0000
36.3600 468.0000 1.0000
36.3700 437.0000 1.0000
36.3800 463.0000 1.0000
36.3900 472.0000 1.0000
36.4000 437.0000 1.0000
36.4100 408.0000 1.0000
36.4200 450.0000 1.0000
36.4300 453.0000 1.0000
36.4400 442.0000 1.0000
36.4500 424.0000 1.0000
36.4600 438.0000 1.0000
36.4700 423.0000 1.0000
36.4800 458.0000 1.0000
36.4900 415.0000 1.0000
36.5000 468.0000 1.0000
36.5100 445.0000 1.0000
36.5200 460.0000 1.0000
36.5300 457.0000 1.0000
36.5400 455.0000 1.0000
36.5500 456.0000 1.0000
36.5600 415.0000 1.0000
36.5700 449.0000 1.0000
36.5800 386.0000 1.0000
36.5900 468.0000 1.0000
36.6000 467.0000 1.0000
36.6100 462.0000 1.0000
36.6200 462.0000 1.0000
36.6300 427.0000 1.0000
36.6400 411.0000 1.0000
36.6500 442.0000 1.0000
36.6600 422.0000 1.0000
36.6700 424.0000 1.0000
36.6800 425.0000 1.0000
36.6900 440.0000 1.0000
36.7000 404.0000 1.0000
36.7100 427.0000 1.0000
36.7200 467.0000 1.0000
36.7300 432.0000 1.0000
36.7400 452.0000 1.0000
36.7500 414.0000 1.0000
36.7600 445.0000 1.0000
36.7700 437.0000 1.0000
36.7800 428.0000 1.0000
36.7900 425.0000 1.0000
36.8000 440.0000 1.0000
36.8100 457.0000 1.0000
36.8200 419.0000 1.0000
36.8300 447.0000 1.0000
36.8400 469.0000 1.0000
36.8500 437.0000 1.0000
36.8600 417.0000 1.0000
36.8700 419.0000 1.0000
36.8800 427.0000 1.0000
36.8900 428.0000 1.0000
36.9000 409.0000 1.0000
36.9100 394.0000 1.0000
36.9200 439.0000 1.0000
36.9300 440.0000 1.0000
36.9400 484.0000 1.0000
36.9500 451.0000 1.0000
36.9600 449.0000 1.0000
36.9700 465.0000 1.0000
36.9800 440.0000 1.0000
36.9900 439.0000 1.0000
37.0000 448.0000 1.0000
37.0100 458.0000 1.0000
37.0200 444.0000 1.0000
37.0300 415.0000 1.0000
37.0400 438.0000 1.0000
37.0500 437.0000 1.0000
37.0600 416.0000 1.0000
37.0700 475.0000 1.0000
37.0800 466.0000 1.0000
37.0900 438.0000 1.0000
37.1000 456.0000 1.0000
37.1100 443.0000 1.0000
37.1200 459.0000 1.0000
37.1300 442.0000 1.0000
37.1400 443.0000 1.0000
37.1500 426.0000 1.0000
37.1600 434.0000 1.0000
37.1700 459.0000 1.0000
37.1800 441.0000 1.0000
37.1900 459.0000 1.0000
37.2000 473.0000 1.0000
37.2100 485.0000 1.0000
37.2200 479.0000 1.0000
37.2300 488.0000 1.0000
37.2400 470.0000 1.0000
37.2500 440.0000 1.0000
37.2600 482.0000 1.0000
37.2700 500.0000 1.0000
37.2800 514.0000 1.0000
37.2900 492.0000 1.0000
37.3000 481.0000 1.0000
37.3100 506.0000 1.0000
37.3200 493.0000 1.0000
37.3300 487.0000 1.0000
37.3400 503.0000 1.0000
37.3500 548.0000 1.0000
37.3600 552.0000 1.0000
37.3700 565.0000 1.0000
37.3800 550.0000 1.0000
37.3900 599.0000 1.0000
37.4000 589.0000 1.0000
37.4100 592.0000 1.0000
37.4200 628.0000 1.0000
37.4300 609.0000 1.0000
37.4400 619.0000 1.0000
37.4500 609.0000 1.0000
37.4600 659.0000 1.0000
37.4700 701.0000 1.0000
37.4800 722.0000 1.0000
37.4900 716.0000 1.0000
37.5000 775.0000 1.0000
37.5100 832.0000 1.0000
37.5200 829.0000 1.0000
37.5300 881.0000 1.0000
37.5400 881.0000 1.0000
37.5500 935.0000 1.0000
37.5600 959.0000 1.0000
37.5700 1016.0000 1.0000
37.5800 1148.0000 1.0000
37.5900 1140.0000 1.0000
37.6000 1254.0000 1.0000
37.6100 1333.0000 1.0000
37.6200 1468.0000 1.0000
37.6300 1583.0000 1.0000
37.6400 1652.0000 1.0000
37.6500 1810.0000 1.0000
37.6600 1864.0000 1.0000
37.6700 1866.0000 1.0000
37.6800 2004.0000 1.0000
37.6900 2107.0000 1.0000
37.7000 2165.0000 1.0000
37.7100 2166.0000 1.0000
37.7200 2237.0000 1.0000
37.7300 2179.0000 1.0000
37.7400 2182.0000 1.0000
37.7500 2201.0000 1.0000
37.7600 2206.0000 1.0000
37.7700 2157.0000 1.0000
37.7800 2120.0000 1.0000
37.7900 2016.0000 1.0000
37.8000 1941.0000 1.0000
37.8100 1852.0000 1.0000
37.8200 1789.0000 1.0000
37.8300 1765.0000 1.0000
37.8400 1669.0000 1.0000
37.8500 1565.0000 1.0000
37.8600 1514.0000 1.0000
37.8700 1374.0000 1.0000
37.8800 1326.0000 1.0000
37.8900 1207.0000 1.0000
37.9000 1145.0000 1.0000
37.9100 1140.0000 1.0000
37.9200 1015.0000 1.0000
37.9300 945.0000 1.0000
37.9400 918.0000 1.0000
37.9500 919.0000 1.0000
37.9600 808.0000 1.0000
37.9700 748.0000 1.0000
37.9800 757.0000 1.0000
37.9900 726.0000 1.0000
38.0000 700.0000 1.0000
38.0100 679.0000 1.0000
38.0200 596.0000 1.0000
38.0300 629.0000 1.0000
38.0400 630.0000 1.0000
38.0500 548.0000 1.0000
38.0600 564.0000 1.0000
38.0700 534.0000 1.0000
38.0800 522.0000 1.0000
38.0900 521.0000 1.0000
38.1000 516.0000 1.0000
38.1100 495.0000 1.0000
38.1200 486.0000 1.0000
38.1300 488.0000 1.0000
38.1400 470.0000 1.0000
38.1500 482.0000 1.0000
38.1600 469.0000 1.0000
38.1700 459.0000 1.0000
38.1800 433.0000 1.0000
38.1900 472.0000 1.0000
38.2000 495.0000 1.0000
38.2100 472.0000 1.0000
38.2200 434.0000 1.0000
38.2300 462.0000 1.0000
38.2400 433.0000 1.0000
38.2500 453.0000 1.0000
38.2600 469.0000 1.0000
38.2700 438.0000 1.0000
38.2800 405.0000 1.0000
38.2900 428.0000 1.0000
38.3000 437.0000 1.0000
38.3100 442.0000 1.0000
38.3200 426.0000 1.0000
38.3300 426.0000 1.0000
38.3400 408.0000 1.0000
38.3500 413.0000 1.0000
38.3600 387.0000 1.0000
38.3700 407.0000 1.0000
38.3800 409.0000 1.0000
38.3900 441.0000 1.0000
38.4000 407.0000 1.0000
38.4100 410.0000 1.0000
38.4200 375.0000 1.0000
38.4300 387.0000 1.0000
38.4400 390.0000 1.0000
38.4500 397.0000 1.0000
38.4600 425.0000 1.0000
38.4700 423.0000 1.0000
38.4800 388.0000 1.0000
38.4900 415.0000 1.0000
38.5000 411.0000 1.0000
38.5100 418.0000 1.0000
38.5200 421.0000 1.0000
38.5300 419.0000 1.0000
38.5400 400.0000 1.0000
38.5500 398.0000 1.0000
38.5600 407.0000 1.0000
38.5700 412.0000 1.0000
38.5800 387.0000 1.0000
38.5900 377.0000 1.0000
38.6000 416.0000 1.0000
38.6100 416.0000 1.0000
38.6200 403.0000 1.0000
38.6300 409.0000 1.0000
38.6400 363.0000 1.0000
38.6500 381.0000 1.0000
38.6600 384.0000 1.0000
38.6700 436.0000 1.0000
38.6800 463.0000 1.0000
38.6900 415.0000 1.0000
38.7000 415.0000 1.0000
38.7100 444.0000 1.0000
38.7200 444.0000 1.0000
38.7300 439.0000 1.0000
38.7400 454.0000 1.0000
38.7500 418.0000 1.0000
38.7600 411.0000 1.0000
38.7700 423.0000 1.0000
38.7800 416.0000 1.0000
38.7900 432.0000 1.0000
38.8000 412.0000 1.0000
38.8100 407.0000 1.0000
38.8200 416.0000 1.0000
38.8300 416.0000 1.0000
38.8400 431.0000 1.0000
38.8500 420.0000 1.0000
38.8600 410.0000 1.0000
38.8700 397.0000 1.0000
38.8800 425.0000 1.0000
38.8900 394.0000 1.0000
38.9000 415.0000 1.0000
38.9100 441.0000 1.0000
38.9200 379.0000 1.0000
38.9300 392.0000 1.0000
38.9400 402.0000 1.0000
38.9500 403.0000 1.0000
38.9600 414.0000 1.0000
38.9700 401.0000 1.0000
38.9800 391.0000 1.0000
38.9900 377.0000 1.0000
39.0000 433.0000 1.0000
39.0100 425.0000 1.0000
39.0200 425.0000 1.0000
39.0300 410.0000 1.0000
39.0400 368.0000 1.0000
39.0500 403.0000 1.0000
39.0600 396.0000 1.0000
39.0700 394.0000 1.0000
39.0800 398.0000 1.0000
39.0900 388.0000 1.0000
39.1000 411.0000 1.0000
39.1100 385.0000 1.0000
39.1200 396.0000 1.0000
39.1300 431.0000 1.0000
39.1400 364.0000 1.0000
39.1500 375.0000 1.0000
39.1600 372.0000 1.0000
39.1700 393.0000 1.0000
39.1800 370.0000 1.0000
39.1900 371.0000 1.0000
39.2000 351.0000 1.0000
39.2100 398.0000 1.0000
39.2200 387.0000 1.0000
39.2300 382.0000 1.0000
39.2400 348.0000 1.0000
39.2500 374.0000 1.0000
39.2600 355.0000 1.0000
39.2700 356.0000 1.0000
39.2800 364.0000 1.0000
39.2900 421.0000 1.0000
39.3000 393.0000 1.0000
39.3100 373.0000 1.0000
39.3200 383.0000 1.0000
39.3300 413.0000 1.0000
39.3400 397.0000 1.0000
39.3500 384.0000 1.0000
39.3600 372.0000 1.0000
39.3700 387.0000 1.0000
39.3800 328.0000 1.0000
39.3900 387.0000 1.0000
39.4000 394.0000 1.0000
39.4100 390.0000 1.0000
39.4200 375.0000 1.0000
39.4300 385.0000 1.0000
39.4400 386.0000 1.0000
39.4500 395.0000 1.0000
39.4600 380.0000 1.0000
39.4700 381.0000 1.0000
39.4800 413.0000 1.0000
39.4900 378.0000 1.0000
39.5000 366.0000 1.0000
39.5100 364.0000 1.0000
39.5200 395.0000 1.0000
39.5300 356.0000 1.0000
39.5400 408.0000 1.0000
39.5500 376.0000 1.0000
39.5600 350.0000 1.0000
39.5700 327.0000 1.0000
39.5800 382.0000 1.0000
39.5900 383.0000 1.0000
39.6000 386.0000 1.0000
39.6100 377.0000 1.0000
39.6200 377.0000 1.0000
39.6300 380.0000 1.0000
39.6400 356.0000 1.0000
39.6500 344.0000 1.0000
39.6600 387.0000 1.0000
39.6700 385.0000 1.0000
39.6800 379.0000 1.0000
39.6900 375.0000 1.0000
39.7000 388.0000 1.0000
39.7100 363.0000 1.0000
39.7200 354.0000 1.0000
39.7300 337.0000 1.0000
39.7400 368.0000 1.0000
39.7500 372.0000 1.0000
39.7600 366.0000 1.0000
39.7700 380.0000 1.0000
39.7800 348.0000 1.0000
39.7900 386.0000 1.0000
39.8000 355.0000 1.0000
39.8100 354.0000 1.0000
39.8200 385.0000 1.0000
39.8300 377.0000 1.0000
39.8400 363.0000 1.0000
39.8500 346.0000 1.0000
39.8600 353.0000 1.0000
39.8700 390.0000 1.0000
39.8800 352.0000 1.0000
39.8900 359.0000 1.0000
39.9000 361.0000 1.0000
39.9100 344.0000 1.0000
39.9200 356.0000 1.0000
39.9300 352.0000 1.0000
39.9400 426.0000 1.0000
39.9500 401.0000 1.0000
39.9600 361.0000 1.0000
39.9700 382.0000 1.0000
39.9800 355.0000 1.0000
39.9900 388.0000 1.0000
40.0000 382.0000 1.0000
40.0100 376.0000 1.0000
40.0200 353.0000 1.0000
40.0300 372.0000 1.0000
40.0400 349.0000 1.0000
40.0500 365.0000 1.0000
40.0600 367.0000 1.0000
40.0700 355.0000 1.0000
40.0800 402.0000 1.0000
40.0900 366.0000 1.0000
40.1000 332.0000 1.0000
40.1100 363.0000 1.0000
40.1200 381.0000 1.0000
40.1300 348.0000 1.0000
40.1400 373.0000 1.0000
40.1500 371.0000 1.0000
40.1600 351.0000 1.0000
40.1700 372.0000 1.0000
40.1800 363.0000 1.0000
40.1900 394.0000 1.0000
40.2000 367.0000 1.0000
40.2100 356.0000 1.0000
40.2200 388.0000 1.0000
40.2300 354.0000 1.0000
40.2400 341.0000 1.0000
40.2500 353.0000 1.0000
40.2600 348.0000 1.0000
40.2700 369.0000 1.0000
40.2800 406.0000 1.0000
40.2900 381.0000 1.0000
40.3000 369.0000 1.0000
40.3100 365.0000 1.0000
40.3200 332.0000 1.0000
40.3300 338.0000 1.0000
40.3400 383.0000 1.0000
40.3500 366.0000 1.0000
40.3600 367.0000 1.0000
40.3700 352.0000 1.0000
40.3800 373.0000 1.0000
40.3900 369.0000 1.0000
40.4000 350.0000 1.0000
40.4100 373.0000 1.0000
40.4200 388.0000 1.0000
40.4300 393.0000 1.0000
40.4400 378.0000 1.0000
40.4500 373.0000 1.0000
40.4600 351.0000 1.0000
40.4700 361.0000 1.0000
40.4800 367.0000 1.0000
40.4900 393.0000 1.0000
40.5000 364.0000 1.0000
40.5100 350.0000 1.0000
40.5200 363.0000 1.0000
40.5300 393.0000 1.0000
40.5400 375.0000 1.0000
40.5500 356.0000 1.0000
40.5600 399.0000 1.0000
40.5700 360.0000 1.0000
40.5800 334.0000 1.0000
40.5900 350.0000 1.0000
40.6000 365.0000 1.0000
40.6100 363.0000 1.0000
40.6200 362.0000 1.0000
40.6300 362.0000 1.0000
40.6400 358.0000 1.0000
40.6500 350.0000 1.0000
40.6600 357.0000 1.0000
40.6700 374.0000 1.0000
40.6800 348.0000 1.0000
40.6900 377.0000 1.0000
40.7000 384.0000 1.0000
40.7100 367.0000 1.0000
40.7200 359.0000 1.0000
40.7300 341.0000 1.0000
40.7400 396.0000 1.0000
40.7500 371.0000 1.0000
40.7600 352.0000 1.0000
40.7700 372.0000 1.0000
40.7800 412.0000 1.0000
40.7900 374.0000 1.0000
40.8000 373.0000 1.0000
40.8100 395.0000 1.0000
40.8200 370.0000 1.0000
40.8300 378.0000 1.0000
40.8400 408.0000 1.0000
40.8500 413.0000 1.0000
40.8600 401.0000 1.0000
40.8700 421.0000 1.0000
40.8800 380.0000 1.0000
40.8900 369.0000 1.0000
40.9000 400.0000 1.0000
40.9100 400.0000 1.0000
40.9200 386.0000 1.0000
40.9300 368.0000 1.0000
40.9400 366.0000 1.0000
40.9500 383.0000 1.0000
40.9600 379.0000 1.0000
40.9700 387.0000 1.0000
40.9800 370.0000 1.0000
40.9900 352.0000 1.0000
41.0000 379.0000 1.0000
41.0100 388.0000 1.0000
41.0200 363.0000 1.0000
41.0300 357.0000 1.0000
41.0400 354.0000 1.0000
41.0500 392.0000 1.0000
41.0600 376.0000 1.0000
41.0700 374.0000 1.0000
41.0800 362.0000 1.0000
41.0900 390.0000 1.0000
41.1000 376.0000 1.0000
41.1100 359.0000 1.0000
41.1200 385.0000 1.0000
41.1300 355.0000 1.0000
41.1400 317.0000 1.0000
41.1500 352.0000 1.0000
41.1600 361.0000 1.0000
41.1700 334.0000 1.0000
41.1800 374.0000 1.0000
41.1900 339.0000 1.0000
41.2000 312.0000 1.0000
41.2100 335.0000 1.0000
41.2200 380.0000 1.0000
41.2300 338.0000 1.0000
41.2400 359.0000 1.0000
41.2500 323.0000 1.0000
41.2600 359.0000 1.0000
41.2700 363.0000 1.0000
41.2800 370.0000 1.0000
41.2900 323.0000 1.0000
41.3000 382.0000 1.0000
41.3100 333.0000 1.0000
41.3200 348.0000 1.0000
41.3300 351.0000 1.0000
41.3400 340.0000 1.0000
41.3500 356.0000 1.0000
41.3600 360.0000 1.0000
41.3700 374.0000 1.0000
41.3800 370.0000 1.0000
41.3900 345.0000 1.0000
41.4000 347.0000 1.0000
41.4100 346.0000 1.0000
41.4200 365.0000 1.0000
41.4300 384.0000 1.0000
41.4400 360.0000 1.0000
41.4500 353.0000 1.0000
41.4600 359.0000 1.0000
41.4700 371.0000 1.0000
41.4800 356.0000 1.0000
41.4900 364.0000 1.0000
41.5000 344.0000 1.0000
41.5100 346.0000 1.0000
41.5200 331.0000 1.0000
41.5300 377.0000 1.0000
41.5400 355.0000 1.0000
41.5500 359.0000 1.0000
41.5600 326.0000 1.0000
41.5700 338.0000 1.0000
41.5800 381.0000 1.0000
41.5900 366.0000 1.0000
41.6000 358.0000 1.0000
41.6100 389.0000 1.0000
41.6200 360.0000 1.0000
41.6300 329.0000 1.0000
41.6400 343.0000 1.0000
41.6500 337.0000 1.0000
41.6600 332.0000 1.0000
41.6700 346.0000 1.0000
41.6800 363.0000 1.0000
41.6900 334.0000 1.0000
41.7000 357.0000 1.0000
41.7100 345.0000 1.0000
41.7200 351.0000 1.0000
41.7300 362.0000 1.0000
41.7400 346.0000 1.0000
41.7500 348.0000 1.0000
41.7600 366.0000 1.0000
41.7700 357.0000 1.0000
41.7800 367.0000 1.0000
41.7900 340.0000 1.0000
41.8000 331.0000 1.0000
41.8100 343.0000 1.0000
41.8200 347.0000 1.0000
41.8300 346.0000 1.0000
41.8400 331.0000 1.0000
41.8500 353.0000 1.0000
41.8600 378.0000 1.0000
41.8700 363.0000 1.0000
41.8800 375.0000 1.0000
41.8900 353.0000 1.0000
41.9000 348.0000 1.0000
41.9100 373.0000 1.0000
41.9200 356.0000 1.0000
41.9300 354.0000 1.0000
41.9400 366.0000 1.0000
41.9500 347.0000 1.0000
41.9600 377.0000 1.0000
41.9700 335.0000 1.0000
41.9800 358.0000 1.0000
41.9900 344.0000 1.0000
42.0000 342.0000 1.0000
42.0100 342.0000 1.0000
42.0200 327.0000 1.0000
42.0300 330.0000 1.0000
42.0400 338.0000 1.0000
42.0500 351.0000 1.0000
42.0600 360.0000 1.0000
42.0700 360.0000 1.0000
42.0800 346.0000 1.0000
42.0900 344.0000 1.0000
42.1000 397.0000 1.0000
42.1100 378.0000 1.0000
42.1200 359.0000 1.0000
42.1300 381.0000 1.0000
42.1400 370.0000 1.0000
42.1500 367.0000 1.0000
42.1600 368.0000 1.0000
42.1700 356.0000 1.0000
42.1800 365.0000 1.0000
42.1900 363.0000 1.0000
42.2000 351.0000 1.0000
42.2100 353.0000 1.0000
42.2200 350.0000 1.0000
42.2300 340.0000 1.0000
42.2400 360.0000 1.0000
42.2500 357.0000 1.0000
42.2600 346.0000 1.0000
42.2700 361.0000 1.0000
42.2800 342.0000 1.0000
42.2900 384.0000 1.0000
42.3000 375.0000 1.0000
42.3100 330.0000 1.0000
42.3200 350.0000 1.0000
42.3300 344.0000 1.0000
42.3400 349.0000 1.0000
42.3500 395.0000 1.0000
42.3600 359.0000 1.0000
42.3700 346.0000 1.0000
42.3800 365.0000 1.0000
42.3900 377.0000 1.0000
42.4000 396.0000 1.0000
42.4100 385.0000 1.0000
42.4200 355.0000 1.0000
42.4300 390.0000 1.0000
42.4400 355.0000 1.0000
42.4500 376.0000 1.0000
42.4600 383.0000 1.0000
42.4700 404.0000 1.0000
42.4800 377.0000 1.0000
42.4900 398.0000 1.0000
42.5000 393.0000 1.0000
42.5100 350.0000 1.0000
42.5200 394.0000 1.0000
42.5300 344.0000 1.0000
42.5400 327.0000 1.0000
42.5500 346.0000 1.0000
42.5600 371.0000 1.0000
42.5700 398.0000 1.0000
42.5800 380.0000 1.0000
42.5900 356.0000 1.0000
42.6000 355.0000 1.0000
42.6100 326.0000 1.0000
42.6200 342.0000 1.0000
42.6300 325.0000 1.0000
42.6400 360.0000 1.0000
42.6500 337.0000 1.0000
42.6600 366.0000 1.0000
42.6700 337.0000 1.0000
42.6800 339.0000 1.0000
42.6900 344.0000 1.0000
42.7000 357.0000 1.0000
42.7100 338.0000 1.0000
42.7200 312.0000 1.0000
42.7300 339.0000 1.0000
42.7400 370.0000 1.0000
42.7500 339.0000 1.0000
42.7600 344.0000 1.0000
42.7700 352.0000 1.0000
42.7800 350.0000 1.0000
42.7900 353.0000 1.0000
42.8000 330.0000 1.0000
42.8100 343.0000 1.0000
42.8200 363.0000 1.0000
42.8300 307.0000 1.0000
42.8400 327.0000 1.0000
42.8500 325.0000 1.0000
42.8600 334.0000 1.0000
42.8700 328.0000 1.0000
42.8800 312.0000 1.0000
42.8900 364.0000 1.0000
42.9000 350.0000 1.0000
42.9100 336.0000 1.0000
42.9200 364.0000 1.0000
42.9300 364.0000 1.0000
42.9400 318.0000 1.0000
42.9500 381.0000 1.0000
42.9600 376.0000 1.0000
42.9700 349.0000 1.0000
42.9800 368.0000 1.0000
42.9900 368.0000 1.0000
43.0000 357.0000 1.0000
43.0100 314.0000 1.0000
43.0200 338.0000 1.0000
43.0300 352.0000 1.0000
43.0400 309.0000 1.0000
43.0500 319.0000 1.0000
43.0600 311.0000 1.0000
43.0700 347.0000 1.0000
43.0800 345.0000 1.0000
43.0900 354.0000 1.0000
43.1000 338.0000 1.0000
43.1100 345.0000 1.0000
43.1200 370.0000 1.0000
43.1300 341.0000 1.0000
43.1400 346.0000 1.0000
43.1500 308.0000 1.0000
43.1600 332.0000 1.0000
43.1700 340.0000 1.0000
43.1800 334.0000 1.0000
43.1900 318.0000 1.0000
43.2000 290.0000 1.0000
43.2100 334.0000 1.0000
43.2200 340.0000 1.0000
43.2300 326.0000 1.0000
43.2400 345.0000 1.0000
43.2500 337.0000 1.0000
43.2600 359.0000 1.0000
43.2700 343.0000 1.0000
43.2800 360.0000 1.0000
43.2900 334.0000 1.0000
43.3000 354.0000 1.0000
43.3100 341.0000 1.0000
43.3200 330.0000 1.0000
43.3300 374.0000 1.0000
43.3400 335.0000 1.0000
43.3500 328.0000 1.0000
43.3600 312.0000 1.0000
43.3700 335.0000 1.0000
43.3800 338.0000 1.0000
43.3900 353.0000 1.0000
43.4000 352.0000 1.0000
43.4100 378.0000 1.0000
43.4200 343.0000 1.0000
43.4300 343.0000 1.0000
43.4400 364.0000 1.0000
43.4500 358.0000 1.0000
43.4600 387.0000 1.0000
43.4700 334.0000 1.0000
43.4800 352.0000 1.0000
43.4900 383.0000 1.0000
43.5000 351.0000 1.0000
43.5100 346.0000 1.0000
43.5200 345.0000 1.0000
43.5300 337.0000 1.0000
43.5400 337.0000 1.0000
43.5500 350.0000 1.0000
43.5600 355.0000 1.0000
43.5700 354.0000 1.0000
43.5800 344.0000 1.0000
43.5900 344.0000 1.0000
43.6000 369.0000 1.0000
43.6100 344.0000 1.0000
43.6200 363.0000 1.0000
43.6300 356.0000 1.0000
43.6400 352.0000 1.0000
43.6500 349.0000 1.0000
43.6600 339.0000 1.0000
43.6700 317.0000 1.0000
43.6800 325.0000 1.0000
43.6900 326.0000 1.0000
43.7000 352.0000 1.0000
43.7100 352.0000 1.0000
43.7200 354.0000 1.0000
43.7300 363.0000 1.0000
43.7400 351.0000 1.0000
43.7500 329.0000 1.0000
43.7600 364.0000 1.0000
43.7700 338.0000 1.0000
43.7800 323.0000 1.0000
43.7900 355.0000 1.0000
43.8000 334.0000 1.0000
43.8100 330.0000 1.0000
43.8200 351.0000 1.0000
43.8300 330.0000 1.0000
43.8400 342.0000 1.0000
43.8500 340.0000 1.0000
43.8600 298.0000 1.0000
43.8700 329.0000 1.0000
43.8800 335.0000 1.0000
43.8900 331.0000 1.0000
43.9000 345.0000 1.0000
43.9100 329.0000 1.0000
43.9200 328.0000 1.0000
43.9300 324.0000 1.0000
43.9400 332.0000 1.0000
43.9500 326.0000 1.0000
43.9600 364.0000 1.0000
43.9700 363.0000 1.0000
43.9800 343.0000 1.0000
43.9900 343.0000 1.0000
44.0000 337.0000 1.0000
44.0100 323.0000 1.0000
44.0200 346.0000 1.0000
44.0300 351.0000 1.0000
44.0400 323.0000 1.0000
44.0500 328.0000 1.0000
44.0600 337.0000 1.0000
44.0700 325.0000 1.0000
44.0800 329.0000 1.0000
44.0900 306.0000 1.0000
44.1000 326.0000 1.0000
44.1100 340.0000 1.0000
44.1200 355.0000 1.0000
44.1300 367.0000 1.0000
44.1400 326.0000 1.0000
44.1500 336.0000 1.0000
44.1600 340.0000 1.0000
44.1700 330.0000 1.0000
44.1800 317.0000 1.0000
44.1900 364.0000 1.0000
44.2000 323.0000 1.0000
44.2100 321.0000 1.0000
44.2200 302.0000 1.0000
44.2300 310.0000 1.0000
44.2400 313.0000 1.0000
44.2500 302.0000 1.0000
44.2600 317.0000 1.0000
44.2700 333.0000 1.0000
44.2800 321.0000 1.0000
44.2900 330.0000 1.0000
44.3000 338.0000 1.0000
44.3100 309.0000 1.0000
44.3200 318.0000 1.0000
44.3300 307.0000 1.0000
44.3400 337.0000 1.0000
44.3500 350.0000 1.0000
44.3600 343.0000 1.0000
44.3700 316.0000 1.0000
44.3800 313.0000 1.0000
44.3900 310.0000 1.0000
44.4000 294.0000 1.0000
44.4100 329.0000 1.0000
44.4200 320.0000 1.0000
44.4300 334.0000 1.0000
44.4400 312.0000 1.0000
44.4500 356.0000 1.0000
44.4600 352.0000 1.0000
44.4700 322.0000 1.0000
44.4800 333.0000 1.0000
44.4900 289.0000 1.0000
44.5000 319.0000 1.0000
44.5100 341.0000 1.0000
44.5200 356.0000 1.0000
44.5300 321.0000 1.0000
44.5400 340.0000 1.0000
44.5500 331.0000 1.0000
44.5600 352.0000 1.0000
44.5700 360.0000 1.0000
44.5800 348.0000 1.0000
44.5900 300.0000 1.0000
44.6000 316.0000 1.0000
44.6100 317.0000 1.0000
44.6200 349.0000 1.0000
44.6300 336.0000 1.0000
44.6400 343.0000 1.0000
44.6500 331.0000 1.0000
44.6600 334.0000 1.0000
44.6700 353.0000 1.0000
44.6800 319.0000 1.0000
44.6900 321.0000 1.0000
44.7000 353.0000 1.0000
44.7100 339.0000 1.0000
44.7200 343.0000 1.0000
44.7300 326.0000 1.0000
44.7400 316.0000 1.0000
44.7500 329.0000 1.0000
44.7600 355.0000 1.0000
44.7700 359.0000 1.0000
44.7800 345.0000 1.0000
44.7900 311.0000 1.0000
44.8000 331.0000 1.0000
44.8100 324.0000 1.0000
44.8200 307.0000 1.0000
44.8300 320.0000 1.0000
44.8400 318.0000 1.0000
44.8500 332.0000 1.0000
44.8600 343.0000 1.0000
44.8700 326.0000 1.0000
44.8800 337.0000 1.0000
44.8900 319.0000 1.0000
44.9000 326.0000 1.0000
44.9100 330.0000 1.0000
44.9200 324.0000 1.0000
44.9300 348.0000 1.0000
44.9400 336.0000 1.0000
44.9500 320.0000 1.0000
44.9600 308.0000 1.0000
44.9700 324.0000 1.0000
44.9800 316.0000 1.0000
44.9900 334.0000 1.0000
45.0000 309.0000 1.0000
45.0100 316.0000 1.0000
45.0200 347.0000 1.0000
45.0300 308.0000 1.0000
45.0400 345.0000 1.0000
45.0500 328.0000 1.0000
45.0600 351.0000 1.0000
45.0700 325.0000 1.0000
45.0800 320.0000 1.0000
45.0900 337.0000 1.0000
45.1000 309.0000 1.0000
45.1100 351.0000 1.0000
45.1200 318.0000 1.0000
45.1300 331.0000 1.0000
45.1400 313.0000 1.0000
45.1500 331.0000 1.0000
45.1600 333.0000 1.0000
45.1700 329.0000 1.0000
45.1800 316.0000 1.0000
45.1900 290.0000 1.0000
45.2000 324.0000 1.0000
45.2100 323.0000 1.0000
45.2200 319.0000 1.0000
45.2300 353.0000 1.0000
45.2400 343.0000 1.0000
45.2500 337.0000 1.0000
45.2600 298.0000 1.0000
45.2700 301.0000 1.0000
45.2800 337.0000 1.0000
45.2900 334.0000 1.0000
45.3000 312.0000 1.0000
45.3100 333.0000 1.0000
45.3200 324.0000 1.0000
45.3300 327.0000 1.0000
45.3400 336.0000 1.0000
45.3500 357.0000 1.0000
45.3600 357.0000 1.0000
45.3700 329.0000 1.0000
45.3800 320.0000 1.0000
45.3900 322.0000 1.0000
45.4000 352.0000 1.0000
45.4100 337.0000 1.0000
45.4200 316.0000 1.0000
45.4300 317.0000 1.0000
45.4400 307.0000 1.0000
45.4500 321.0000 1.0000
45.4600 337.0000 1.0000
45.4700 315.0000 1.0000
45.4800 281.0000 1.0000
45.4900 341.0000 1.0000
45.5000 315.0000 1.0000
45.5100 314.0000 1.0000
45.5200 325.0000 1.0000
45.5300 296.0000 1.0000
45.5400 282.0000 1.0000
45.5500 327.0000 1.0000
45.5600 340.0000 1.0000
45.5700 316.0000 1.0000
45.5800 327.0000 1.0000
45.5900 332.0000 1.0000
45.6000 306.0000 1.0000
45.6100 321.0000 1.0000
45.6200 328.0000 1.0000
45.6300 319.0000 1.0000
45.6400 330.0000 1.0000
45.6500 307.0000 1.0000
45.6600 314.0000 1.0000
45.6700 330.0000 1.0000
45.6800 341.0000 1.0000
45.6900 321.0000 1.0000
45.7000 348.0000 1.0000
45.7100 282.0000 1.0000
45.7200 349.0000 1.0000
45.7300 325.0000 1.0000
45.7400 317.0000 1.0000
45.7500 329.0000 1.0000
45.7600 291.0000 1.0000
45.7700 330.0000 1.0000
45.7800 316.0000 1.0000
45.7900 295.0000 1.0000
45.8000 299.0000 1.0000
45.8100 338.0000 1.0000
45.8200 319.0000 1.0000
45.8300 307.0000 1.0000
45.8400 307.0000 1.0000
45.8500 306.0000 1.0000
45.8600 295.0000 1.0000
45.8700 345.0000 1.0000
45.8800 317.0000 1.0000
45.8900 345.0000 1.0000
45.9000 325.0000 1.0000
45.9100 321.0000 1.0000
45.9200 318.0000 1.0000
45.9300 295.0000 1.0000
45.9400 299.0000 1.0000
45.9500 326.0000 1.0000
45.9600 311.0000 1.0000
45.9700 344.0000 1.0000
45.9800 322.0000 1.0000
45.9900 307.0000 1.0000
46.0000 321.0000 1.0000
46.0100 316.0000 1.0000
46.0200 299.0000 1.0000
46.0300 307.0000 1.0000
46.0400 294.0000 1.0000
46.0500 312.0000 1.0000
46.0600 301.0000 1.0000
46.0700 324.0000 1.0000
46.0800 316.0000 1.0000
46.0900 296.0000 1.0000
46.1000 342.0000 1.0000
46.1100 338.0000 1.0000
46.1200 338.0000 1.0000
46.1300 340.0000 1.0000
46.1400 322.0000 1.0000
46.1500 298.0000 1.0000
46.1600 318.0000 1.0000
46.1700 334.0000 1.0000
46.1800 315.0000 1.0000
46.1900 323.0000 1.0000
46.2000 313.0000 1.0000
46.2100 319.0000 1.0000
46.2200 310.0000 1.0000
46.2300 314.0000 1.0000
46.2400 311.0000 1.0000
46.2500 313.0000 1.0000
46.2600 311.0000 1.0000
46.2700 311.0000 1.0000
46.2800 330.0000 1.0000
46.2900 286.0000 1.0000
46.3000 337.0000 1.0000
46.3100 318.0000 1.0000
46.3200 340.0000 1.0000
46.3300 321.0000 1.0000
46.3400 313.0000 1.0000
46.3500 325.0000 1.0000
46.3600 325.0000 1.0000
46.3700 320.0000 1.0000
46.3800 331.0000 1.0000
46.3900 333.0000 1.0000
46.4000 334.0000 1.0000
46.4100 331.0000 1.0000
46.4200 328.0000 1.0000
46.4300 325.0000 1.0000
46.4400 311.0000 1.0000
46.4500 327.0000 1.0000
46.4600 335.0000 1.0000
46.4700 326.0000 1.0000
46.4800 332.0000 1.0000
46.4900 340.0000 1.0000
46.5000 309.0000 1.0000
46.5100 312.0000 1.0000
46.5200 320.0000 1.0000
46.5300 313.0000 1.0000
46.5400 305.0000 1.0000
46.5500 309.0000 1.0000
46.5600 293.0000 1.0000
46.5700 314.0000 1.0000
46.5800 306.0000 1.0000
46.5900 287.0000 1.0000
46.6000 331.0000 1.0000
46.6100 320.0000 1.0000
46.6200 300.0000 1.0000
46.6300 301.0000 1.0000
46.6400 325.0000 1.0000
46.6500 311.0000 1.0000
46.6600 312.0000 1.0000
46.6700 333.0000 1.0000
46.6800 331.0000 1.0000
46.6900 299.0000 1.0000
46.7000 294.0000 1.0000
46.7100 325.0000 1.0000
46.7200 295.0000 1.0000
46.7300 331.0000 1.0000
46.7400 333.0000 1.0000
46.7500 293.0000 1.0000
46.7600 334.0000 1.0000
46.7700 295.0000 1.0000
46.7800 323.0000 1.0000
46.7900 289.0000 1.0000
46.8000 326.0000 1.0000
46.8100 306.0000 1.0000
46.8200 307.0000 1.0000
46.8300 298.0000 1.0000
46.8400 313.0000 1.0000
46.8500 296.0000 1.0000
46.8600 290.0000 1.0000
46.8700 311.0000 1.0000
46.8800 300.0000 1.0000
46.8900 301.0000 1.0000
46.9000 317.0000 1.0000
46.9100 294.0000 1.0000
46.9200 321.0000 1.0000
46.9300 338.0000 1.0000
46.9400 286.0000 1.0000
46.9500 277.0000 1.0000
46.9600 313.0000 1.0000
46.9700 304.0000 1.0000
46.9800 293.0000 1.0000
46.9900 277.0000 1.0000
47.0000 305.0000 1.0000
47.0100 322.0000 1.0000
47.0200 290.0000 1.0000
47.0300 304.0000 1.0000
47.0400 324.0000 1.0000
47.0500 289.0000 1.0000
47.0600 342.0000 1.0000
47.0700 294.0000 1.0000
47.0800 318.0000 1.0000
47.0900 296.0000 1.0000
47.1000 290.0000 1.0000
47.1100 329.0000 1.0000
47.1200 300.0000 1.0000
47.1300 296.0000 1.0000
47.1400 317.0000 1.0000
47.1500 319.0000 1.0000
47.1600 341.0000 1.0000
47.1700 311.0000 1.0000
47.1800 329.0000 1.0000
47.1900 284.0000 1.0000
47.2000 316.0000 1.0000
47.2100 294.0000 1.0000
47.2200 325.0000 1.0000
47.2300 317.0000 1.0000
47.2400 322.0000 1.0000
47.2500 332.0000 1.0000
47.2600 299.0000 1.0000
47.2700 322.0000 1.0000
47.2800 333.0000 1.0000
47.2900 309.0000 1.0000
47.3000 298.0000 1.0000
47.3100 309.0000 1.0000
47.3200 337.0000 1.0000
47.3300 347.0000 1.0000
47.3400 309.0000 1.0000
47.3500 296.0000 1.0000
47.3600 317.0000 1.0000
47.3700 289.0000 1.0000
47.3800 329.0000 1.0000
47.3900 287.0000 1.0000
47.4000 289.0000 1.0000
47.4100 307.0000 1.0000
47.4200 331.0000 1.0000
47.4300 298.0000 1.0000
47.4400 293.0000 1.0000
47.4500 332.0000 1.0000
47.4600 312.0000 1.0000
47.4700 311.0000 1.0000
47.4800 293.0000 1.0000
47.4900 310.0000 1.0000
47.5000 307.0000 1.0000
47.5100 280.0000 1.0000
47.5200 313.0000 1.0000
47.5300 292.0000 1.0000
47.5400 285.0000 1.0000
47.5500 311.0000 1.0000
47.5600 323.0000 1.0000
47.5700 286.0000 1.0000
47.5800 289.0000 1.0000
47.5900 325.0000 1.0000
47.6000 308.0000 1.0000
47.6100 329.0000 1.0000
47.6200 327.0000 1.0000
47.6300 288.0000 1.0000
47.6400 294.0000 1.0000
47.6500 320.0000 1.0000
47.6600 303.0000 1.0000
47.6700 330.0000 1.0000
47.6800 303.0000 1.0000
47.6900 299.0000 1.0000
47.7000 339.0000 1.0000
47.7100 311.0000 1.0000
47.7200 308.0000 1.0000
47.7300 343.0000 1.0000
47.7400 301.0000 1.0000
47.7500 311.0000 1.0000
47.7600 289.0000 1.0000
47.7700 313.0000 1.0000
47.7800 276.0000 1.0000
47.7900 301.0000 1.0000
47.8000 312.0000 1.0000
47.8100 323.0000 1.0000
47.8200 295.0000 1.0000
47.8300 299.0000 1.0000
47.8400 281.0000 1.0000
47.8500 300.0000 1.0000
47.8600 323.0000 1.0000
47.8700 335.0000 1.0000
47.8800 308.0000 1.0000
47.8900 346.0000 1.0000
47.9000 320.0000 1.0000
47.9100 320.0000 1.0000
47.9200 281.0000 1.0000
47.9300 263.0000 1.0000
47.9400 269.0000 1.0000
47.9500 305.0000 1.0000
47.9600 306.0000 1.0000
47.9700 304.0000 1.0000
47.9800 278.0000 1.0000
47.9900 293.0000 1.0000
48.0000 301.0000 1.0000
48.0100 302.0000 1.0000
48.0200 300.0000 1.0000
48.0300 291.0000 1.0000
48.0400 307.0000 1.0000
48.0500 305.0000 1.0000
48.0600 291.0000 1.0000
48.0700 282.0000 1.0000
48.0800 287.0000 1.0000
48.0900 333.0000 1.0000
48.1000 311.0000 1.0000
48.1100 284.0000 1.0000
48.1200 291.0000 1.0000
48.1300 298.0000 1.0000
48.1400 293.0000 1.0000
48.1500 302.0000 1.0000
48.1600 303.0000 1.0000
48.1700 277.0000 1.0000
48.1800 284.0000 1.0000
48.1900 279.0000 1.0000
48.2000 289.0000 1.0000
48.2100 308.0000 1.0000
48.2200 292.0000 1.0000
48.2300 288.0000 1.0000
48.2400 281.0000 1.0000
48.2500 280.0000 1.0000
48.2600 328.0000 1.0000
48.2700 297.0000 1.0000
48.2800 301.0000 1.0000
48.2900 296.0000 1.0000
48.3000 291.0000 1.0000
48.3100 282.0000 1.0000
48.3200 297.0000 1.0000
48.3300 297.0000 1.0000
48.3400 304.0000 1.0000
48.3500 282.0000 1.0000
48.3600 305.0000 1.0000
48.3700 318.0000 1.0000
48.3800 283.0000 1.0000
48.3900 338.0000 1.0000
48.4000 282.0000 1.0000
48.4100 295.0000 1.0000
48.4200 318.0000 1.0000
48.4300 308.0000 1.0000
48.4400 296.0000 1.0000
48.4500 276.0000 1.0000
48.4600 298.0000 1.0000
48.4700 256.0000 1.0000
48.4800 274.0000 1.0000
48.4900 293.0000 1.0000
48.5000 299.0000 1.0000
48.5100 303.0000 1.0000
48.5200 326.0000 1.0000
48.5300 296.0000 1.0000
48.5400 288.0000 1.0000
48.5500 275.0000 1.0000
48.5600 291.0000 1.0000
48.5700 300.0000 1.0000
48.5800 290.0000 1.0000
48.5900 303.0000 1.0000
48.6000 332.0000 1.0000
48.6100 312.0000 1.0000
48.6200 315.0000 1.0000
48.6300 290.0000 1.0000
48.6400 284.0000 1.0000
48.6500 272.0000 1.0000
48.6600 253.0000 1.0000
48.6700 311.0000 1.0000
48.6800 340.0000 1.0000
48.6900 278.0000 1.0000
48.7000 285.0000 1.0000
48.7100 291.0000 1.0000
48.7200 310.0000 1.0000
48.7300 305.0000 1.0000
48.7400 288.0000 1.0000
48.7500 280.0000 1.0000
48.7600 312.0000 1.0000
48.7700 316.0000 1.0000
48.7800 285.0000 1.0000
48.7900 316.0000 1.0000
48.8000 283.0000 1.0000
48.8100 298.0000 1.0000
48.8200 289.0000 1.0000
48.8300 286.0000 1.0000
48.8400 287.0000 1.0000
48.8500 301.0000 1.0000
48.8600 303.0000 1.0000
48.8700 279.0000 1.0000
48.8800 283.0000 1.0000
48.8900 280.0000 1.0000
48.9000 296.0000 1.0000
48.9100 315.0000 1.0000
48.9200 310.0000 1.0000
48.9300 279.0000 1.0000
48.9400 275.0000 1.0000
48.9500 285.0000 1.0000
48.9600 284.0000 1.0000
48.9700 324.0000 1.0000
48.9800 307.0000 1.0000
48.9900 304.0000 1.0000
49.0000 304.0000 1.0000
49.0100 291.0000 1.0000
49.0200 305.0000 1.0000
49.0300 330.0000 1.0000
49.0400 289.0000 1.0000
49.0500 290.0000 1.0000
49.0600 307.0000 1.0000
49.0700 315.0000 1.0000
49.0800 307.0000 1.0000
49.0900 296.0000 1.0000
49.1000 280.0000 1.0000
49.1100 302.0000 1.0000
49.1200 311.0000 1.0000
49.1300 318.0000 1.0000
49.1400 325.0000 1.0000
49.1500 330.0000 1.0000
49.1600 299.0000 1.0000
49.1700 292.0000 1.0000
49.1800 311.0000 1.0000
49.1900 297.0000 1.0000
49.2000 309.0000 1.0000
49.2100 316.0000 1.0000
49.2200 293.0000 1.0000
49.2300 303.0000 1.0000
49.2400 337.0000 1.0000
49.2500 316.0000 1.0000
49.2600 297.0000 1.0000
49.2700 290.0000 1.0000
49.2800 287.0000 1.0000
49.2900 298.0000 1.0000
49.3000 319.0000 1.0000
49.3100 310.0000 1.0000
49.3200 310.0000 1.0000
49.3300 338.0000 1.0000
49.3400 342.0000 1.0000
49.3500 324.0000 1.0000
49.3600 341.0000 1.0000
49.3700 326.0000 1.0000
49.3800 341.0000 1.0000
49.3900 341.0000 1.0000
49.4000 368.0000 1.0000
49.4100 339.0000 1.0000
49.4200 344.0000 1.0000
49.4300 326.0000 1.0000
49.4400 349.0000 1.0000
49.4500 303.0000 1.0000
49.4600 355.0000 1.0000
49.4700 348.0000 1.0000
49.4800 334.0000 1.0000
49.4900 324.0000 1.0000
49.5000 339.0000 1.0000
49.5100 311.0000 1.0000
49.5200 302.0000 1.0000
49.5300 317.0000 1.0000
49.5400 308.0000 1.0000
49.5500 317.0000 1.0000
49.5600 326.0000 1.0000
49.5700 303.0000 1.0000
49.5800 332.0000 1.0000
49.5900 335.0000 1.0000
49.6000 298.0000 1.0000
49.6100 314.0000 1.0000
49.6200 341.0000 1.0000
49.6300 292.0000 1.0000
49.6400 324.0000 1.0000
49.6500 294.0000 1.0000
49.6600 329.0000 1.0000
49.6700 327.0000 1.0000
49.6800 319.0000 1.0000
49.6900 292.0000 1.0000
49.7000 307.0000 1.0000
49.7100 314.0000 1.0000
49.7200 297.0000 1.0000
49.7300 331.0000 1.0000
49.7400 306.0000 1.0000
49.7500 287.0000 1.0000
49.7600 290.0000 1.0000
49.7700 292.0000 1.0000
49.7800 314.0000 1.0000
49.7900 318.0000 1.0000
49.8000 312.0000 1.0000
49.8100 305.0000 1.0000
49.8200 347.0000 1.0000
49.8300 314.0000 1.0000
49.8400 308.0000 1.0000
49.8500 297.0000 1.0000
49.8600 298.0000 1.0000
49.8700 296.0000 1.0000
49.8800 312.0000 1.0000
49.8900 304.0000 1.0000
49.9000 298.0000 1.0000
49.9100 296.0000 1.0000
49.9200 269.0000 1.0000
49.9300 300.0000 1.0000
49.9400 300.0000 1.0000
49.9500 292.0000 1.0000
49.9600 291.0000 1.0000
49.9700 296.0000 1.0000
49.9800 297.0000 1.0000
49.9900 307.0000 1.0000
50.0000 295.0000 1.0000
50.0100 286.0000 1.0000
50.0200 311.0000 1.0000
50.0300 322.0000 1.0000
50.0400 333.0000 1.0000
50.0500 301.0000 1.0000
50.0600 281.0000 1.0000
50.0700 283.0000 1.0000
50.0800 295.0000 1.0000
50.0900 311.0000 1.0000
50.1000 294.0000 1.0000
50.1100 300.0000 1.0000
50.1200 303.0000 1.0000
50.1300 297.0000 1.0000
50.1400 288.0000 1.0000
50.1500 294.0000 1.0000
50.1600 328.0000 1.0000
50.1700 298.0000 1.0000
50.1800 300.0000 1.0000
50.1900 286.0000 1.0000
50.2000 300.0000 1.0000
50.2100 292.0000 1.0000
50.2200 315.0000 1.0000
50.2300 290.0000 1.0000
50.2400 298.0000 1.0000
50.2500 296.0000 1.0000
50.2600 290.0000 1.0000
50.2700 308.0000 1.0000
50.2800 295.0000 1.0000
50.2900 319.0000 1.0000
50.3000 296.0000 1.0000
50.3100 338.0000 1.0000
50.3200 310.0000 1.0000
50.3300 286.0000 1.0000
50.3400 285.0000 1.0000
50.3500 297.0000 1.0000
50.3600 324.0000 1.0000
50.3700 303.0000 1.0000
50.3800 306.0000 1.0000
50.3900 310.0000 1.0000
50.4000 324.0000 1.0000
50.4100 278.0000 1.0000
50.4200 258.0000 1.0000
50.4300 299.0000 1.0000
50.4400 314.0000 1.0000
50.4500 299.0000 1.0000
50.4600 314.0000 1.0000
50.4700 319.0000 1.0000
50.4800 347.0000 1.0000
50.4900 299.0000 1.0000
50.5000 284.0000 1.0000
50.5100 298.0000 1.0000
50.5200 305.0000 1.0000
50.5300 302.0000 1.0000
50.5400 298.0000 1.0000
50.5500 315.0000 1.0000
50.5600 320.0000 1.0000
50.5700 317.0000 1.0000
50.5800 304.0000 1.0000
50.5900 324.0000 1.0000
50.6000 306.0000 1.0000
50.6100 303.0000 1.0000
50.6200 304.0000 1.0000
50.6300 290.0000 1.0000
50.6400 304.0000 1.0000
50.6500 315.0000 1.0000
50.6600 297.0000 1.0000
50.6700 295.0000 1.0000
50.6800 304.0000 1.0000
50.6900 304.0000 1.0000
50.7000 311.0000 1.0000
50.7100 310.0000 1.0000
50.7200 317.0000 1.0000
50.7300 310.0000 1.0000
50.7400 316.0000 1.0000
50.7500 289.0000 1.0000
50.7600 318.0000 1.0000
50.7700 347.0000 1.0000
50.7800 317.0000 1.0000
50.7900 305.0000 1.0000
50.8000 308.0000 1.0000
50.8100 313.0000 1.0000
50.8200 298.0000 1.0000
50.8300 305.0000 1.0000
50.8400 302.0000 1.0000
50.8500 318.0000 1.0000
50.8600 321.0000 1.0000
50.8700 329.0000 1.0000
50.8800 311.0000 1.0000
50.8900 298.0000 1.0000
50.9000 338.0000 1.0000
50.9100 335.0000 1.0000
50.9200 313.0000 1.0000
50.9300 314.0000 1.0000
50.9400 297.0000 1.0000
50.9500 322.0000 1.0000
50.9600 328.0000 1.0000
50.9700 298.0000 1.0000
50.9800 340.0000 1.0000
50.9900 322.0000 1.0000
51.0000 308.0000 1.0000
51.0100 321.0000 1.0000
51.0200 325.0000 1.0000
51.0300 316.0000 1.0000
51.0400 315.0000 1.0000
51.0500 360.0000 1.0000
51.0600 359.0000 1.0000
51.0700 343.0000 1.0000
51.0800 358.0000 1.0000
51.0900 350.0000 1.0000
51.1000 367.0000 1.0000
51.1100 375.0000 1.0000
51.1200 359.0000 1.0000
51.1300 367.0000 1.0000
51.1400 412.0000 1.0000
51.1500 346.0000 1.0000
51.1600 380.0000 1.0000
51.1700 395.0000 1.0000
51.1800 406.0000 1.0000
51.1900 407.0000 1.0000
51.2000 435.0000 1.0000
51.2100 484.0000 1.0000
51.2200 480.0000 1.0000
51.2300 478.0000 1.0000
51.2400 506.0000 1.0000
51.2500 489.0000 1.0000
51.2600 516.0000 1.0000
51.2700 536.0000 1.0000
51.2800 573.0000 1.0000
51.2900 551.0000 1.0000
51.3000 592.0000 1.0000
51.3100 614.0000 1.0000
51.3200 699.0000 1.0000
51.3300 752.0000 1.0000
51.3400 755.0000 1.0000
51.3500 783.0000 1.0000
51.3600 862.0000 1.0000
51.3700 933.0000 1.0000
51.3800 986.0000 1.0000
51.3900 1081.0000 1.0000
51.4000 1124.0000 1.0000
51.4100 1314.0000 1.0000
51.4200 1377.0000 1.0000
51.4300 1469.0000 1.0000
51.4400 1548.0000 1.0000
51.4500 1657.0000 1.0000
51.4600 1733.0000 1.0000
51.4700 1831.0000 1.0000
51.4800 1939.0000 1.0000
51.4900 2036.0000 1.0000
51.5000 1968.0000 1.0000
51.5100 2022.0000 1.0000
51.5200 2026.0000 1.0000
51.5300 1947.0000 1.0000
51.5400 1918.0000 1.0000
51.5500 1886.0000 1.0000
51.5600 1796.0000 1.0000
51.5700 1832.0000 1.0000
51.5800 1784.0000 1.0000
51.5900 1701.0000 1.0000
51.6000 1655.0000 1.0000
51.6100 1583.0000 1.0000
51.6200 1496.0000 1.0000
51.6300 1490.0000 1.0000
51.6400 1509.0000 1.0000
51.6500 1438.0000 1.0000
51.6600 1323.0000 1.0000
51.6700 1275.0000 1.0000
51.6800 1212.0000 1.0000
51.6900 1150.0000 1.0000
51.7000 1038.0000 1.0000
51.7100 957.0000 1.0000
51.7200 929.0000 1.0000
51.7300 855.0000 1.0000
51.7400 834.0000 1.0000
51.7500 714.0000 1.0000
51.7600 691.0000 1.0000
51.7700 630.0000 1.0000
51.7800 615.0000 1.0000
51.7900 626.0000 1.0000
51.8000 619.0000 1.0000
51.8100 557.0000 1.0000
51.8200 515.0000 1.0000
51.8300 535.0000 1.0000
51.8400 483.0000 1.0000
51.8500 501.0000 1.0000
51.8600 443.0000 1.0000
51.8700 421.0000 1.0000
51.8800 432.0000 1.0000
51.8900 437.0000 1.0000
51.9000 412.0000 1.0000
51.9100 407.0000 1.0000
51.9200 379.0000 1.0000
51.9300 403.0000 1.0000
51.9400 420.0000 1.0000
51.9500 381.0000 1.0000
51.9600 384.0000 1.0000
51.9700 375.0000 1.0000
51.9800 379.0000 1.0000
51.9900 382.0000 1.0000
52.0000 370.0000 1.0000
52.0100 355.0000 1.0000
52.0200 355.0000 1.0000
52.0300 344.0000 1.0000
52.0400 360.0000 1.0000
52.0500 337.0000 1.0000
52.0600 350.0000 1.0000
52.0700 336.0000 1.0000
52.0800 344.0000 1.0000
52.0900 308.0000 1.0000
52.1000 341.0000 1.0000
52.1100 313.0000 1.0000
52.1200 336.0000 1.0000
52.1300 328.0000 1.0000
52.1400 344.0000 1.0000
52.1500 340.0000 1.0000
52.1600 314.0000 1.0000
52.1700 315.0000 1.0000
52.1800 328.0000 1.0000
52.1900 303.0000 1.0000
52.2000 321.0000 1.0000
52.2100 314.0000 1.0000
52.2200 310.0000 1.0000
52.2300 332.0000 1.0000
52.2400 308.0000 1.0000
52.2500 311.0000 1.0000
52.2600 318.0000 1.0000
52.2700 336.0000 1.0000
52.2800 315.0000 1.0000
52.2900 318.0000 1.0000
52.3000 309.0000 1.0000
52.3100 311.0000 1.0000
52.3200 303.0000 1.0000
52.3300 324.0000 1.0000
52.3400 292.0000 1.0000
52.3500 285.0000 1.0000
52.3600 313.0000 1.0000
52.3700 325.0000 1.0000
52.3800 295.0000 1.0000
52.3900 298.0000 1.0000
52.4000 288.0000 1.0000
52.4100 307.0000 1.0000
52.4200 297.0000 1.0000
52.4300 308.0000 1.0000
52.4400 316.0000 1.0000
52.4500 294.0000 1.0000
52.4600 323.0000 1.0000
52.4700 301.0000 1.0000
52.4800 307.0000 1.0000
52.4900 301.0000 1.0000
52.5000 269.0000 1.0000
52.5100 317.0000 1.0000
52.5200 289.0000 1.0000
52.5300 293.0000 1.0000
52.5400 309.0000 1.0000
52.5500 337.0000 1.0000
52.5600 297.0000 1.0000
52.5700 308.0000 1.0000
52.5800 272.0000 1.0000
52.5900 305.0000 1.0000
52.6000 307.0000 1.0000
52.6100 289.0000 1.0000
52.6200 307.0000 1.0000
52.6300 319.0000 1.0000
52.6400 306.0000 1.0000
52.6500 294.0000 1.0000
52.6600 284.0000 1.0000
52.6700 286.0000 1.0000
52.6800 279.0000 1.0000
52.6900 283.0000 1.0000
52.7000 303.0000 1.0000
52.7100 283.0000 1.0000
52.7200 325.0000 1.0000
52.7300 313.0000 1.0000
52.7400 299.0000 1.0000
52.7500 304.0000 1.0000
52.7600 282.0000 1.0000
52.7700 290.0000 1.0000
52.7800 287.0000 1.0000
52.7900 282.0000 1.0000
52.8000 317.0000 1.0000
52.8100 285.0000 1.0000
52.8200 284.0000 1.0000
52.8300 300.0000 1.0000
52.8400 335.0000 1.0000
52.8500 292.0000 1.0000
52.8600 289.0000 1.0000
52.8700 286.0000 1.0000
52.8800 306.0000 1.0000
52.8900 311.0000 1.0000
52.9000 299.0000 1.0000
52.9100 302.0000 1.0000
52.9200 296.0000 1.0000
52.9300 293.0000 1.0000
52.9400 279.0000 1.0000
52.9500 276.0000 1.0000
52.9600 299.0000 1.0000
52.9700 280.0000 1.0000
52.9800 292.0000 1.0000
52.9900 321.0000 1.0000
53.0000 314.0000 1.0000
53.0100 305.0000 1.0000
53.0200 311.0000 1.0000
53.0300 305.0000 1.0000
53.0400 285.0000 1.0000
53.0500 297.0000 1.0000
53.0600 298.0000 1.0000
53.0700 287.0000 1.0000
53.0800 286.0000 1.0000
53.0900 297.0000 1.0000
53.1000 304.0000 1.0000
53.1100 289.0000 1.0000
53.1200 269.0000 1.0000
53.1300 301.0000 1.0000
53.1400 291.0000 1.0000
53.1500 312.0000 1.0000
53.1600 274.0000 1.0000
53.1700 289.0000 1.0000
53.1800 307.0000 1.0000
53.1900 287.0000 1.0000
53.2000 290.0000 1.0000
53.2100 297.0000 1.0000
53.2200 276.0000 1.0000
53.2300 300.0000 1.0000
53.2400 300.0000 1.0000
53.2500 278.0000 1.0000
53.2600 289.0000 1.0000
53.2700 289.0000 1.0000
53.2800 282.0000 1.0000
53.2900 302.0000 1.0000
53.3000 281.0000 1.0000
53.3100 288.0000 1.0000
53.3200 247.0000 1.0000
53.3300 291.0000 1.0000
53.3400 272.0000 1.0000
53.3500 307.0000 1.0000
53.3600 274.0000 1.0000
53.3700 278.0000 1.0000
53.3800 295.0000 1.0000
53.3900 294.0000 1.0000
53.4000 279.0000 1.0000
53.4100 288.0000 1.0000
53.4200 282.0000 1.0000
53.4300 296.0000 1.0000
53.4400 295.0000 1.0000
53.4500 296.0000 1.0000
53.4600 308.0000 1.0000
53.4700 280.0000 1.0000
53.4800 287.0000 1.0000
53.4900 272.0000 1.0000
53.5000 275.0000 1.0000
53.5100 289.0000 1.0000
53.5200 262.0000 1.0000
53.5300 279.0000 1.0000
53.5400 301.0000 1.0000
53.5500 307.0000 1.0000
53.5600 310.0000 1.0000
53.5700 278.0000 1.0000
53.5800 286.0000 1.0000
53.5900 288.0000 1.0000
53.6000 273.0000 1.0000
53.6100 286.0000 1.0000
53.6200 306.0000 1.0000
53.6300 271.0000 1.0000
53.6400 294.0000 1.0000
53.6500 283.0000 1.0000
53.6600 286.0000 1.0000
53.6700 301.0000 1.0000
53.6800 289.0000 1.0000
53.6900 288.0000 1.0000
53.7000 271.0000 1.0000
53.7100 312.0000 1.0000
53.7200 312.0000 1.0000
53.7300 309.0000 1.0000
53.7400 291.0000 1.0000
53.7500 286.0000 1.0000
53.7600 288.0000 1.0000
53.7700 284.0000 1.0000
53.7800 308.0000 1.0000
53.7900 312.0000 1.0000
53.8000 300.0000 1.0000
53.8100 286.0000 1.0000
53.8200 295.0000 1.0000
53.8300 291.0000 1.0000
53.8400 291.0000 1.0000
53.8500 290.0000 1.0000
53.8600 301.0000 1.0000
53.8700 293.0000 1.0000
53.8800 284.0000 1.0000
53.8900 291.0000 1.0000
53.9000 302.0000 1.0000
53.9100 310.0000 1.0000
53.9200 288.0000 1.0000
53.9300 306.0000 1.0000
53.9400 299.0000 1.0000
53.9500 310.0000 1.0000
53.9600 314.0000 1.0000
53.9700 329.0000 1.0000
53.9800 332.0000 1.0000
53.9900 316.0000 1.0000
54.0000 328.0000 1.0000
54.0100 319.0000 1.0000
54.0200 308.0000 1.0000
54.0300 318.0000 1.0000
54.0400 338.0000 1.0000
54.0500 366.0000 1.0000
54.0600 341.0000 1.0000
54.0700 340.0000 1.0000
54.0800 335.0000 1.0000
54.0900 297.0000 1.0000
54.1000 263.0000 1.0000
54.1100 328.0000 1.0000
54.1200 316.0000 1.0000
54.1300 346.0000 1.0000
54.1400 335.0000 1.0000
54.1500 316.0000 1.0000
54.1600 304.0000 1.0000
54.1700 335.0000 1.0000
54.1800 332.0000 1.0000
54.1900 325.0000 1.0000
54.2000 310.0000 1.0000
54.2100 319.0000 1.0000
54.2200 353.0000 1.0000
54.2300 287.0000 1.0000
54.2400 314.0000 1.0000
54.2500 326.0000 1.0000
54.2600 311.0000 1.0000
54.2700 340.0000 1.0000
54.2800 323.0000 1.0000
54.2900 311.0000 1.0000
54.3000 295.0000 1.0000
54.3100 349.0000 1.0000
54.3200 333.0000 1.0000
54.3300 335.0000 1.0000
54.3400 349.0000 1.0000
54.3500 342.0000 1.0000
54.3600 312.0000 1.0000
54.3700 345.0000 1.0000
54.3800 351.0000 1.0000
54.3900 328.0000 1.0000
54.4000 352.0000 1.0000
54.4100 391.0000 1.0000
54.4200 381.0000 1.0000
54.4300 386.0000 1.0000
54.4400 397.0000 1.0000
54.4500 397.0000 1.0000
54.4600 394.0000 1.0000
54.4700 379.0000 1.0000
54.4800 415.0000 1.0000
54.4900 408.0000 1.0000
54.5000 426.0000 1.0000
54.5100 450.0000 1.0000
54.5200 439.0000 1.0000
54.5300 478.0000 1.0000
54.5400 428.0000 1.0000
54.5500 464.0000 1.0000
54.5600 457.0000 1.0000
54.5700 450.0000 1.0000
54.5800 407.0000 1.0000
54.5900 415.0000 1.0000
54.6000 393.0000 1.0000
54.6100 417.0000 1.0000
54.6200 391.0000 1.0000
54.6300 398.0000 1.0000
54.6400 429.0000 1.0000
54.6500 382.0000 1.0000
54.6600 420.0000 1.0000
54.6700 412.0000 1.0000
54.6800 389.0000 1.0000
54.6900 358.0000 1.0000
54.7000 382.0000 1.0000
54.7100 356.0000 1.0000
54.7200 354.0000 1.0000
54.7300 325.0000 1.0000
54.7400 346.0000 1.0000
54.7500 356.0000 1.0000
54.7600 359.0000 1.0000
54.7700 330.0000 1.0000
54.7800 323.0000 1.0000
54.7900 323.0000 1.0000
54.8000 323.0000 1.0000
54.8100 346.0000 1.0000
54.8200 327.0000 1.0000
54.8300 326.0000 1.0000
54.8400 296.0000 1.0000
54.8500 324.0000 1.0000
54.8600 333.0000 1.0000
54.8700 321.0000 1.0000
54.8800 304.0000 1.0000
54.8900 287.0000 1.0000
54.9000 303.0000 1.0000
54.9100 320.0000 1.0000
54.9200 318.0000 1.0000
54.9300 320.0000 1.0000
54.9400 287.0000 1.0000
54.9500 287.0000 1.0000
54.9600 295.0000 1.0000
54.9700 322.0000 1.0000
54.9800 319.0000 1.0000
54.9900 296.0000 1.0000
55.0000 277.0000 1.0000
55.0100 297.0000 1.0000
55.0200 329.0000 1.0000
55.0300 290.0000 1.0000
55.0400 272.0000 1.0000
55.0500 301.0000 1.0000
55.0600 280.0000 1.0000
55.0700 296.0000 1.0000
55.0800 301.0000 1.0000
55.0900 302.0000 1.0000
55.1000 306.0000 1.0000
55.1100 306.0000 1.0000
55.1200 299.0000 1.0000
55.1300 279.0000 1.0000
55.1400 279.0000 1.0000
55.1500 309.0000 1.0000
55.1600 301.0000 1.0000
55.1700 278.0000 1.0000
55.1800 282.0000 1.0000
55.1900 309.0000 1.0000
55.2000 299.0000 1.0000
55.2100 313.0000 1.0000
55.2200 289.0000 1.0000
55.2300 287.0000 1.0000
55.2400 260.0000 1.0000
55.2500 300.0000 1.0000
55.2600 307.0000 1.0000
55.2700 274.0000 1.0000
55.2800 282.0000 1.0000
55.2900 292.0000 1.0000
55.3000 259.0000 1.0000
55.3100 284.0000 1.0000
55.3200 269.0000 1.0000
55.3300 266.0000 1.0000
55.3400 285.0000 1.0000
55.3500 306.0000 1.0000
55.3600 280.0000 1.0000
55.3700 271.0000 1.0000
55.3800 298.0000 1.0000
55.3900 260.0000 1.0000
55.4000 291.0000 1.0000
55.4100 273.0000 1.0000
55.4200 281.0000 1.0000
55.4300 302.0000 1.0000
55.4400 306.0000 1.0000
55.4500 305.0000 1.0000
55.4600 288.0000 1.0000
55.4700 303.0000 1.0000
55.4800 288.0000 1.0000
55.4900 294.0000 1.0000
55.5000 283.0000 1.0000
55.5100 264.0000 1.0000
55.5200 278.0000 1.0000
55.5300 284.0000 1.0000
55.5400 288.0000 1.0000
55.5500 297.0000 1.0000
55.5600 303.0000 1.0000
55.5700 282.0000 1.0000
55.5800 294.0000 1.0000
55.5900 272.0000 1.0000
55.6000 270.0000 1.0000
55.6100 305.0000 1.0000
55.6200 306.0000 1.0000
55.6300 272.0000 1.0000
55.6400 257.0000 1.0000
55.6500 266.0000 1.0000
55.6600 263.0000 1.0000
55.6700 248.0000 1.0000
55.6800 275.0000 1.0000
55.6900 275.0000 1.0000
55.7000 271.0000 1.0000
55.7100 326.0000 1.0000
55.7200 267.0000 1.0000
55.7300 281.0000 1.0000
55.7400 280.0000 1.0000
55.7500 269.0000 1.0000
55.7600 264.0000 1.0000
55.7700 272.0000 1.0000
55.7800 250.0000 1.0000
55.7900 263.0000 1.0000
55.8000 278.0000 1.0000
55.8100 258.0000 1.0000
55.8200 273.0000 1.0000
55.8300 285.0000 1.0000
55.8400 286.0000 1.0000
55.8500 277.0000 1.0000
55.8600 294.0000 1.0000
55.8700 282.0000 1.0000
55.8800 282.0000 1.0000
55.8900 278.0000 1.0000
55.9000 273.0000 1.0000
55.9100 235.0000 1.0000
55.9200 270.0000 1.0000
55.9300 312.0000 1.0000
55.9400 277.0000 1.0000
55.9500 301.0000 1.0000
55.9600 271.0000 1.0000
55.9700 265.0000 1.0000
55.9800 279.0000 1.0000
55.9900 289.0000 1.0000
56.0000 258.0000 1.0000
56.0100 296.0000 1.0000
56.0200 250.0000 1.0000
56.0300 252.0000 1.0000
56.0400 262.0000 1.0000
56.0500 259.0000 1.0000
56.0600 260.0000 1.0000
56.0700 262.0000 1.0000
56.0800 313.0000 1.0000
56.0900 289.0000 1.0000
56.1000 279.0000 1.0000
56.1100 282.0000 1.0000
56.1200 292.0000 1.0000
56.1300 254.0000 1.0000
56.1400 288.0000 1.0000
56.1500 277.0000 1.0000
56.1600 289.0000 1.0000
56.1700 279.0000 1.0000
56.1800 270.0000 1.0000
56.1900 291.0000 1.0000
56.2000 259.0000 1.0000
56.2100 265.0000 1.0000
56.2200 277.0000 1.0000
56.2300 259.0000 1.0000
56.2400 279.0000 1.0000
56.2500 268.0000 1.0000
56.2600 298.0000 1.0000
56.2700 285.0000 1.0000
56.2800 269.0000 1.0000
56.2900 265.0000 1.0000
56.3000 270.0000 1.0000
56.3100 286.0000 1.0000
56.3200 265.0000 1.0000
56.3300 273.0000 1.0000
56.3400 297.0000 1.0000
56.3500 263.0000 1.0000
56.3600 269.0000 1.0000
56.3700 279.0000 1.0000
56.3800 278.0000 1.0000
56.3900 269.0000 1.0000
56.4000 264.0000 1.0000
56.4100 269.0000 1.0000
56.4200 290.0000 1.0000
56.4300 263.0000 1.0000
56.4400 268.0000 1.0000
56.4500 290.0000 1.0000
56.4600 283.0000 1.0000
56.4700 275.0000 1.0000
56.4800 260.0000 1.0000
56.4900 282.0000 1.0000
56.5000 291.0000 1.0000
56.5100 284.0000 1.0000
56.5200 291.0000 1.0000
56.5300 291.0000 1.0000
56.5400 275.0000 1.0000
56.5500 272.0000 1.0000
56.5600 284.0000 1.0000
56.5700 262.0000 1.0000
56.5800 260.0000 1.0000
56.5900 292.0000 1.0000
56.6000 295.0000 1.0000
56.6100 295.0000 1.0000
56.6200 287.0000 1.0000
56.6300 267.0000 1.0000
56.6400 292.0000 1.0000
56.6500 293.0000 1.0000
56.6600 264.0000 1.0000
56.6700 290.0000 1.0000
56.6800 294.0000 1.0000
56.6900 294.0000 1.0000
56.7000 287.0000 1.0000
56.7100 276.0000 1.0000
56.7200 281.0000 1.0000
56.7300 284.0000 1.0000
56.7400 262.0000 1.0000
56.7500 275.0000 1.0000
56.7600 274.0000 1.0000
56.7700 270.0000 1.0000
56.7800 268.0000 1.0000
56.7900 283.0000 1.0000
56.8000 273.0000 1.0000
56.8100 301.0000 1.0000
56.8200 266.0000 1.0000
56.8300 274.0000 1.0000
56.8400 276.0000 1.0000
56.8500 265.0000 1.0000
56.8600 264.0000 1.0000
56.8700 271.0000 1.0000
56.8800 274.0000 1.0000
56.8900 276.0000 1.0000
56.9000 253.0000 1.0000
56.9100 274.0000 1.0000
56.9200 287.0000 1.0000
56.9300 268.0000 1.0000
56.9400 260.0000 1.0000
56.9500 284.0000 1.0000
56.9600 263.0000 1.0000
56.9700 285.0000 1.0000
56.9800 291.0000 1.0000
56.9900 269.0000 1.0000
57.0000 251.0000 1.0000
57.0100 271.0000 1.0000
57.0200 307.0000 1.0000
57.0300 281.0000 1.0000
57.0400 288.0000 1.0000
57.0500 284.0000 1.0000
57.0600 269.0000 1.0000
57.0700 275.0000 1.0000
57.0800 262.0000 1.0000
57.0900 291.0000 1.0000
57.1000 271.0000 1.0000
57.1100 289.0000 1.0000
57.1200 256.0000 1.0000
57.1300 279.0000 1.0000
57.1400 276.0000 1.0000
57.1500 300.0000 1.0000
57.1600 251.0000 1.0000
57.1700 281.0000 1.0000
57.1800 266.0000 1.0000
57.1900 292.0000 1.0000
57.2000 290.0000 1.0000
57.2100 282.0000 1.0000
57.2200 288.0000 1.0000
57.2300 270.0000 1.0000
57.2400 279.0000 1.0000
57.2500 281.0000 1.0000
57.2600 292.0000 1.0000
57.2700 268.0000 1.0000
57.2800 277.0000 1.0000
57.2900 273.0000 1.0000
57.3000 266.0000 1.0000
57.3100 298.0000 1.0000
57.3200 270.0000 1.0000
57.3300 282.0000 1.0000
57.3400 276.0000 1.0000
57.3500 301.0000 1.0000
57.3600 292.0000 1.0000
57.3700 292.0000 1.0000
57.3800 303.0000 1.0000
57.3900 290.0000 1.0000
57.4000 305.0000 1.0000
57.4100 286.0000 1.0000
57.4200 290.0000 1.0000
57.4300 302.0000 1.0000
57.4400 275.0000 1.0000
57.4500 298.0000 1.0000
57.4600 319.0000 1.0000
57.4700 303.0000 1.0000
57.4800 280.0000 1.0000
57.4900 297.0000 1.0000
57.5000 290.0000 1.0000
57.5100 267.0000 1.0000
57.5200 239.0000 1.0000
57.5300 290.0000 1.0000
57.5400 292.0000 1.0000
57.5500 279.0000 1.0000
57.5600 278.0000 1.0000
57.5700 279.0000 1.0000
57.5800 295.0000 1.0000
57.5900 262.0000 1.0000
57.6000 266.0000 1.0000
57.6100 302.0000 1.0000
57.6200 263.0000 1.0000
57.6300 270.0000 1.0000
57.6400 282.0000 1.0000
57.6500 329.0000 1.0000
57.6600 302.0000 1.0000
57.6700 307.0000 1.0000
57.6800 291.0000 1.0000
57.6900 265.0000 1.0000
57.7000 277.0000 1.0000
57.7100 281.0000 1.0000
57.7200 272.0000 1.0000
57.7300 283.0000 1.0000
57.7400 246.0000 1.0000
57.7500 294.0000 1.0000
57.7600 277.0000 1.0000
57.7700 266.0000 1.0000
57.7800 278.0000 1.0000
57.7900 254.0000 1.0000
57.8000 257.0000 1.0000
57.8100 260.0000 1.0000
57.8200 271.0000 1.0000
57.8300 268.0000 1.0000
57.8400 278.0000 1.0000
57.8500 260.0000 1.0000
57.8600 264.0000 1.0000
57.8700 301.0000 1.0000
57.8800 274.0000 1.0000
57.8900 274.0000 1.0000
57.9000 294.0000 1.0000
57.9100 285.0000 1.0000
57.9200 253.0000 1.0000
57.9300 287.0000 1.0000
57.9400 249.0000 1.0000
57.9500 271.0000 1.0000
57.9600 281.0000 1.0000
57.9700 277.0000 1.0000
57.9800 251.0000 1.0000
57.9900 266.0000 1.0000
58.0000 279.0000 1.0000
58.0100 262.0000 1.0000
58.0200 273.0000 1.0000
58.0300 263.0000 1.0000
58.0400 281.0000 1.0000
58.0500 240.0000 1.0000
58.0600 285.0000 1.0000
58.0700 260.0000 1.0000
58.0800 272.0000 1.0000
58.0900 285.0000 1.0000
58.1000 281.0000 1.0000
58.1100 296.0000 1.0000
58.1200 277.0000 1.0000
58.1300 273.0000 1.0000
58.1400 294.0000 1.0000
58.1500 245.0000 1.0000
58.1600 262.0000 1.0000
58.1700 296.0000 1.0000
58.1800 285.0000 1.0000
58.1900 273.0000 1.0000
58.2000 248.0000 1.0000
58.2100 278.0000 1.0000
58.2200 269.0000 1.0000
58.2300 270.0000 1.0000
58.2400 276.0000 1.0000
58.2500 282.0000 1.0000
58.2600 276.0000 1.0000
58.2700 286.0000 1.0000
58.2800 262.0000 1.0000
58.2900 269.0000 1.0000
58.3000 258.0000 1.0000
58.3100 267.0000 1.0000
58.3200 260.0000 1.0000
58.3300 282.0000 1.0000
58.3400 283.0000 1.0000
58.3500 290.0000 1.0000
58.3600 269.0000 1.0000
58.3700 257.0000 1.0000
58.3800 270.0000 1.0000
58.3900 282.0000 1.0000
58.4000 285.0000 1.0000
58.4100 262.0000 1.0000
58.4200 297.0000 1.0000
58.4300 302.0000 1.0000
58.4400 256.0000 1.0000
58.4500 271.0000 1.0000
58.4600 277.0000 1.0000
58.4700 245.0000 1.0000
58.4800 280.0000 1.0000
58.4900 259.0000 1.0000
58.5000 291.0000 1.0000
58.5100 284.0000 1.0000
58.5200 272.0000 1.0000
58.5300 285.0000 1.0000
58.5400 259.0000 1.0000
58.5500 260.0000 1.0000
58.5600 267.0000 1.0000
58.5700 292.0000 1.0000
58.5800 272.0000 1.0000
58.5900 286.0000 1.0000
58.6000 279.0000 1.0000
58.6100 285.0000 1.0000
58.6200 262.0000 1.0000
58.6300 291.0000 1.0000
58.6400 280.0000 1.0000
58.6500 265.0000 1.0000
58.6600 269.0000 1.0000
58.6700 273.0000 1.0000
58.6800 310.0000 1.0000
58.6900 284.0000 1.0000
58.7000 268.0000 1.0000
58.7100 261.0000 1.0000
58.7200 272.0000 1.0000
58.7300 262.0000 1.0000
58.7400 267.0000 1.0000
58.7500 285.0000 1.0000
58.7600 259.0000 1.0000
58.7700 290.0000 1.0000
58.7800 262.0000 1.0000
58.7900 252.0000 1.0000
58.8000 253.0000 1.0000
58.8100 268.0000 1.0000
58.8200 298.0000 1.0000
58.8300 262.0000 1.0000
58.8400 286.0000 1.0000
58.8500 256.0000 1.0000
58.8600 261.0000 1.0000
58.8700 286.0000 1.0000
58.8800 278.0000 1.0000
58.8900 255.0000 1.0000
58.9000 252.0000 1.0000
58.9100 318.0000 1.0000
58.9200 295.0000 1.0000
58.9300 254.0000 1.0000
58.9400 259.0000 1.0000
58.9500 261.0000 1.0000
58.9600 278.0000 1.0000
58.9700 294.0000 1.0000
58.9800 276.0000 1.0000
58.9900 259.0000 1.0000
59.0000 267.0000 1.0000
59.0100 281.0000 1.0000
59.0200 278.0000 1.0000
59.0300 265.0000 1.0000
59.0400 271.0000 1.0000
59.0500 257.0000 1.0000
59.0600 263.0000 1.0000
59.0700 265.0000 1.0000
59.0800 272.0000 1.0000
59.0900 255.0000 1.0000
59.1000 262.0000 1.0000
59.1100 277.0000 1.0000
59.1200 271.0000 1.0000
59.1300 264.0000 1.0000
59.1400 271.0000 1.0000
59.1500 261.0000 1.0000
59.1600 263.0000 1.0000
59.1700 242.0000 1.0000
59.1800 284.0000 1.0000
59.1900 264.0000 1.0000
59.2000 271.0000 1.0000
59.2100 265.0000 1.0000
59.2200 253.0000 1.0000
59.2300 258.0000 1.0000
59.2400 270.0000 1.0000
59.2500 284.0000 1.0000
59.2600 265.0000 1.0000
59.2700 258.0000 1.0000
59.2800 284.0000 1.0000
59.2900 298.0000 1.0000
59.3000 281.0000 1.0000
59.3100 268.0000 1.0000
59.3200 242.0000 1.0000
59.3300 249.0000 1.0000
59.3400 253.0000 1.0000
59.3500 252.0000 1.0000
59.3600 281.0000 1.0000
59.3700 276.0000 1.0000
59.3800 276.0000 1.0000
59.3900 280.0000 1.0000
59.4000 277.0000 1.0000
59.4100 256.0000 1.0000
59.4200 286.0000 1.0000
59.4300 280.0000 1.0000
59.4400 294.0000 1.0000
59.4500 286.0000 1.0000
59.4600 280.0000 1.0000
59.4700 266.0000 1.0000
59.4800 274.0000 1.0000
59.4900 279.0000 1.0000
59.5000 280.0000 1.0000
59.5100 276.0000 1.0000
59.5200 252.0000 1.0000
59.5300 261.0000 1.0000
59.5400 287.0000 1.0000
59.5500 294.0000 1.0000
59.5600 260.0000 1.0000
59.5700 243.0000 1.0000
59.5800 256.0000 1.0000
59.5900 295.0000 1.0000
59.6000 284.0000 1.0000
59.6100 279.0000 1.0000
59.6200 267.0000 1.0000
59.6300 274.0000 1.0000
59.6400 270.0000 1.0000
59.6500 296.0000 1.0000
59.6600 304.0000 1.0000
59.6700 266.0000 1.0000
59.6800 243.0000 1.0000
59.6900 256.0000 1.0000
59.7000 268.0000 1.0000
59.7100 265.0000 1.0000
59.7200 260.0000 1.0000
59.7300 286.0000 1.0000
59.7400 275.0000 1.0000
59.7500 264.0000 1.0000
59.7600 252.0000 1.0000
59.7700 238.0000 1.0000
59.7800 253.0000 1.0000
59.7900 269.0000 1.0000
59.8000 280.0000 1.0000
59.8100 291.0000 1.0000
59.8200 293.0000 1.0000
59.8300 255.0000 1.0000
59.8400 259.0000 1.0000
59.8500 300.0000 1.0000
59.8600 288.0000 1.0000
59.8700 265.0000 1.0000
59.8800 268.0000 1.0000
59.8900 260.0000 1.0000
59.9000 259.0000 1.0000
59.9100 254.0000 1.0000
59.9200 263.0000 1.0000
59.9300 253.0000 1.0000
59.9400 273.0000 1.0000
59.9500 272.0000 1.0000
59.9600 261.0000 1.0000
59.9700 274.0000 1.0000
59.9800 272.0000 1.0000
59.9900 259.0000 1.0000
60.0000 279.0000 1.0000
60.0100 280.0000 1.0000
60.0200 236.0000 1.0000
60.0300 246.0000 1.0000
60.0400 262.0000 1.0000
60.0500 249.0000 1.0000
60.0600 277.0000 1.0000
60.0700 250.0000 1.0000
60.0800 234.0000 1.0000
60.0900 230.0000 1.0000
60.1000 268.0000 1.0000
60.1100 286.0000 1.0000
60.1200 275.0000 1.0000
60.1300 290.0000 1.0000
60.1400 268.0000 1.0000
60.1500 271.0000 1.0000
60.1600 281.0000 1.0000
60.1700 275.0000 1.0000
60.1800 271.0000 1.0000
60.1900 269.0000 1.0000
60.2000 271.0000 1.0000
60.2100 277.0000 1.0000
60.2200 284.0000 1.0000
60.2300 298.0000 1.0000
60.2400 255.0000 1.0000
60.2500 279.0000 1.0000
60.2600 274.0000 1.0000
60.2700 300.0000 1.0000
60.2800 263.0000 1.0000
60.2900 258.0000 1.0000
60.3000 270.0000 1.0000
60.3100 255.0000 1.0000
60.3200 255.0000 1.0000
60.3300 282.0000 1.0000
60.3400 280.0000 1.0000
60.3500 300.0000 1.0000
60.3600 300.0000 1.0000
60.3700 273.0000 1.0000
60.3800 277.0000 1.0000
60.3900 307.0000 1.0000
60.4000 292.0000 1.0000
60.4100 262.0000 1.0000
60.4200 277.0000 1.0000
60.4300 265.0000 1.0000
60.4400 258.0000 1.0000
60.4500 272.0000 1.0000
60.4600 269.0000 1.0000
60.4700 262.0000 1.0000
60.4800 280.0000 1.0000
60.4900 286.0000 1.0000
60.5000 238.0000 1.0000
60.5100 271.0000 1.0000
60.5200 279.0000 1.0000
60.5300 309.0000 1.0000
60.5400 299.0000 1.0000
60.5500 264.0000 1.0000
60.5600 283.0000 1.0000
60.5700 244.0000 1.0000
60.5800 280.0000 1.0000
60.5900 273.0000 1.0000
60.6000 274.0000 1.0000
60.6100 265.0000 1.0000
60.6200 281.0000 1.0000
60.6300 278.0000 1.0000
60.6400 270.0000 1.0000
60.6500 266.0000 1.0000
60.6600 256.0000 1.0000
60.6700 264.0000 1.0000
60.6800 280.0000 1.0000
60.6900 271.0000 1.0000
60.7000 278.0000 1.0000
60.7100 267.0000 1.0000
60.7200 268.0000 1.0000
60.7300 289.0000 1.0000
60.7400 291.0000 1.0000
60.7500 262.0000 1.0000
60.7600 268.0000 1.0000
60.7700 277.0000 1.0000
60.7800 313.0000 1.0000
60.7900 276.0000 1.0000
60.8000 294.0000 1.0000
60.8100 274.0000 1.0000
60.8200 271.0000 1.0000
60.8300 276.0000 1.0000
60.8400 277.0000 1.0000
60.8500 290.0000 1.0000
60.8600 281.0000 1.0000
60.8700 279.0000 1.0000
60.8800 269.0000 1.0000
60.8900 265.0000 1.0000
60.9000 279.0000 1.0000
60.9100 256.0000 1.0000
60.9200 271.0000 1.0000
60.9300 281.0000 1.0000
60.9400 285.0000 1.0000
60.9500 271.0000 1.0000
60.9600 267.0000 1.0000
60.9700 294.0000 1.0000
60.9800 265.0000 1.0000
60.9900 275.0000 1.0000
61.0000 271.0000 1.0000
61.0100 287.0000 1.0000
61.0200 280.0000 1.0000
61.0300 292.0000 1.0000
61.0400 287.0000 1.0000
61.0500 315.0000 1.0000
61.0600 279.0000 1.0000
61.0700 279.0000 1.0000
61.0800 297.0000 1.0000
61.0900 293.0000 1.0000
61.1000 310.0000 1.0000
61.1100 295.0000 1.0000
61.1200 330.0000 1.0000
61.1300 294.0000 1.0000
61.1400 312.0000 1.0000
61.1500 314.0000 1.0000
61.1600 315.0000 1.0000
61.1700 320.0000 1.0000
61.1800 312.0000 1.0000
61.1900 303.0000 1.0000
61.2000 315.0000 1.0000
61.2100 322.0000 1.0000
61.2200 273.0000 1.0000
61.2300 295.0000 1.0000
61.2400 297.0000 1.0000
61.2500 312.0000 1.0000
61.2600 324.0000 1.0000
61.2700 309.0000 1.0000
61.2800 338.0000 1.0000
61.2900 330.0000 1.0000
61.3000 373.0000 1.0000
61.3100 363.0000 1.0000
61.3200 383.0000 1.0000
61.3300 367.0000 1.0000
61.3400 413.0000 1.0000
61.3500 411.0000 1.0000
61.3600 402.0000 1.0000
61.3700 427.0000 1.0000
61.3800 411.0000 1.0000
61.3900 417.0000 1.0000
61.4000 439.0000 1.0000
61.4100 444.0000 1.0000
61.4200 428.0000 1.0000
61.4300 469.0000 1.0000
61.4400 469.0000 1.0000
61.4500 485.0000 1.0000
61.4600 513.0000 1.0000
61.4700 519.0000 1.0000
61.4800 539.0000 1.0000
61.4900 524.0000 1.0000
61.5000 592.0000 1.0000
61.5100 543.0000 1.0000
61.5200 574.0000 1.0000
61.5300 545.0000 1.0000
61.5400 524.0000 1.0000
61.5500 545.0000 1.0000
61.5600 552.0000 1.0000
61.5700 599.0000 1.0000
61.5800 571.0000 1.0000
61.5900 568.0000 1.0000
61.6000 583.0000 1.0000
61.6100 630.0000 1.0000
61.6200 614.0000 1.0000
61.6300 585.0000 1.0000
61.6400 548.0000 1.0000
61.6500 518.0000 1.0000
61.6600 534.0000 1.0000
61.6700 557.0000 1.0000
61.6800 551.0000 1.0000
61.6900 546.0000 1.0000
61.7000 479.0000 1.0000
61.7100 531.0000 1.0000
61.7200 515.0000 1.0000
61.7300 509.0000 1.0000
61.7400 465.0000 1.0000
61.7500 471.0000 1.0000
61.7600 469.0000 1.0000
61.7700 459.0000 1.0000
61.7800 470.0000 1.0000
61.7900 445.0000 1.0000
61.8000 436.0000 1.0000
61.8100 401.0000 1.0000
61.8200 420.0000 1.0000
61.8300 407.0000 1.0000
61.8400 410.0000 1.0000
61.8500 393.0000 1.0000
61.8600 413.0000 1.0000
61.8700 413.0000 1.0000
61.8800 394.0000 1.0000
61.8900 383.0000 1.0000
61.9000 363.0000 1.0000
61.9100 354.0000 1.0000
61.9200 370.0000 1.0000
61.9300 353.0000 1.0000
61.9400 317.0000 1.0000
61.9500 331.0000 1.0000
61.9600 335.0000 1.0000
61.9700 342.0000 1.0000
61.9800 328.0000 1.0000
61.9900 345.0000 1.0000
62.0000 314.0000 1.0000
62.0100 335.0000 1.0000
62.0200 299.0000 1.0000
62.0300 304.0000 1.0000
62.0400 311.0000 1.0000
62.0500 332.0000 1.0000
62.0600 317.0000 1.0000
62.0700 294.0000 1.0000
62.0800 318.0000 1.0000
62.0900 332.0000 1.0000
62.1000 337.0000 1.0000
62.1100 313.0000 1.0000
62.1200 288.0000 1.0000
62.1300 274.0000 1.0000
62.1400 298.0000 1.0000
62.1500 317.0000 1.0000
62.1600 280.0000 1.0000
62.1700 300.0000 1.0000
62.1800 282.0000 1.0000
62.1900 325.0000 1.0000
62.2000 307.0000 1.0000
62.2100 318.0000 1.0000
62.2200 295.0000 1.0000
62.2300 276.0000 1.0000
62.2400 287.0000 1.0000
62.2500 297.0000 1.0000
62.2600 287.0000 1.0000
62.2700 298.0000 1.0000
62.2800 321.0000 1.0000
62.2900 290.0000 1.0000
62.3000 276.0000 1.0000
62.3100 313.0000 1.0000
62.3200 297.0000 1.0000
62.3300 311.0000 1.0000
62.3400 293.0000 1.0000
62.3500 293.0000 1.0000
62.3600 299.0000 1.0000
62.3700 315.0000 1.0000
62.3800 315.0000 1.0000
62.3900 333.0000 1.0000
62.4000 301.0000 1.0000
62.4100 309.0000 1.0000
62.4200 329.0000 1.0000
62.4300 302.0000 1.0000
62.4400 318.0000 1.0000
62.4500 317.0000 1.0000
62.4600 297.0000 1.0000
62.4700 300.0000 1.0000
62.4800 297.0000 1.0000
62.4900 292.0000 1.0000
62.5000 312.0000 1.0000
62.5100 312.0000 1.0000
62.5200 336.0000 1.0000
62.5300 310.0000 1.0000
62.5400 281.0000 1.0000
62.5500 305.0000 1.0000
62.5600 291.0000 1.0000
62.5700 305.0000 1.0000
62.5800 298.0000 1.0000
62.5900 299.0000 1.0000
62.6000 311.0000 1.0000
62.6100 294.0000 1.0000
62.6200 261.0000 1.0000
62.6300 268.0000 1.0000
62.6400 273.0000 1.0000
62.6500 288.0000 1.0000
62.6600 315.0000 1.0000
62.6700 276.0000 1.0000
62.6800 275.0000 1.0000
62.6900 302.0000 1.0000
62.7000 253.0000 1.0000
62.7100 263.0000 1.0000
62.7200 267.0000 1.0000
62.7300 288.0000 1.0000
62.7400 260.0000 1.0000
62.7500 271.0000 1.0000
62.7600 273.0000 1.0000
62.7700 281.0000 1.0000
62.7800 285.0000 1.0000
62.7900 271.0000 1.0000
62.8000 272.0000 1.0000
62.8100 275.0000 1.0000
62.8200 279.0000 1.0000
62.8300 267.0000 1.0000
62.8400 278.0000 1.0000
62.8500 276.0000 1.0000
62.8600 244.0000 1.0000
62.8700 247.0000 1.0000
62.8800 261.0000 1.0000
62.8900 268.0000 1.0000
62.9000 279.0000 1.0000
62.9100 265.0000 1.0000
62.9200 252.0000 1.0000
62.9300 260.0000 1.0000
62.9400 262.0000 1.0000
62.9500 290.0000 1.0000
62.9600 275.0000 1.0000
62.9700 261.0000 1.0000
62.9800 274.0000 1.0000
62.9900 272.0000 1.0000
63.0000 269.0000 1.0000
63.0100 259.0000 1.0000
63.0200 255.0000 1.0000
63.0300 258.0000 1.0000
63.0400 267.0000 1.0000
63.0500 279.0000 1.0000
63.0600 260.0000 1.0000
63.0700 241.0000 1.0000
63.0800 270.0000 1.0000
63.0900 290.0000 1.0000
63.1000 245.0000 1.0000
63.1100 263.0000 1.0000
63.1200 274.0000 1.0000
63.1300 261.0000 1.0000
63.1400 269.0000 1.0000
63.1500 280.0000 1.0000
63.1600 290.0000 1.0000
63.1700 278.0000 1.0000
63.1800 297.0000 1.0000
63.1900 289.0000 1.0000
63.2000 277.0000 1.0000
63.2100 252.0000 1.0000
63.2200 299.0000 1.0000
63.2300 280.0000 1.0000
63.2400 270.0000 1.0000
63.2500 274.0000 1.0000
63.2600 276.0000 1.0000
63.2700 271.0000 1.0000
63.2800 258.0000 1.0000
63.2900 276.0000 1.0000
63.3000 260.0000 1.0000
63.3100 262.0000 1.0000
63.3200 272.0000 1.0000
63.3300 260.0000 1.0000
63.3400 273.0000 1.0000
63.3500 268.0000 1.0000
63.3600 258.0000 1.0000
63.3700 280.0000 1.0000
63.3800 262.0000 1.0000
63.3900 270.0000 1.0000
63.4000 287.0000 1.0000
63.4100 286.0000 1.0000
63.4200 294.0000 1.0000
63.4300 272.0000 1.0000
63.4400 291.0000 1.0000
63.4500 286.0000 1.0000
63.4600 268.0000 1.0000
63.4700 296.0000 1.0000
63.4800 271.0000 1.0000
63.4900 252.0000 1.0000
63.5000 277.0000 1.0000
63.5100 287.0000 1.0000
63.5200 275.0000 1.0000
63.5300 244.0000 1.0000
63.5400 241.0000 1.0000
63.5500 295.0000 1.0000
63.5600 285.0000 1.0000
63.5700 250.0000 1.0000
63.5800 270.0000 1.0000
63.5900 286.0000 1.0000
63.6000 251.0000 1.0000
63.6100 270.0000 1.0000
63.6200 278.0000 1.0000
63.6300 269.0000 1.0000
63.6400 272.0000 1.0000
63.6500 269.0000 1.0000
63.6600 278.0000 1.0000
63.6700 279.0000 1.0000
63.6800 282.0000 1.0000
63.6900 285.0000 1.0000
63.7000 282.0000 1.0000
63.7100 287.0000 1.0000
63.7200 308.0000 1.0000
63.7300 280.0000 1.0000
63.7400 270.0000 1.0000
63.7500 280.0000 1.0000
63.7600 264.0000 1.0000
63.7700 291.0000 1.0000
63.7800 297.0000 1.0000
63.7900 293.0000 1.0000
63.8000 285.0000 1.0000
63.8100 308.0000 1.0000
63.8200 334.0000 1.0000
63.8300 305.0000 1.0000
63.8400 295.0000 1.0000
63.8500 321.0000 1.0000
63.8600 356.0000 1.0000
63.8700 332.0000 1.0000
63.8800 317.0000 1.0000
63.8900 348.0000 1.0000
63.9000 338.0000 1.0000
63.9100 374.0000 1.0000
63.9200 403.0000 1.0000
63.9300 430.0000 1.0000
63.9400 439.0000 1.0000
63.9500 439.0000 1.0000
63.9600 469.0000 1.0000
63.9700 469.0000 1.0000
63.9800 452.0000 1.0000
63.9900 456.0000 1.0000
64.0000 431.0000 1.0000
64.0100 408.0000 1.0000
64.0200 421.0000 1.0000
64.0300 418.0000 1.0000
64.0400 385.0000 1.0000
64.0500 395.0000 1.0000
64.0600 358.0000 1.0000
64.0700 355.0000 1.0000
64.0800 342.0000 1.0000
64.0900 373.0000 1.0000
64.1000 405.0000 1.0000
64.1100 397.0000 1.0000
64.1200 378.0000 1.0000
64.1300 390.0000 1.0000
64.1400 408.0000 1.0000
64.1500 395.0000 1.0000
64.1600 370.0000 1.0000
64.1700 357.0000 1.0000
64.1800 357.0000 1.0000
64.1900 357.0000 1.0000
64.2000 333.0000 1.0000
64.2100 340.0000 1.0000
64.2200 336.0000 1.0000
64.2300 304.0000 1.0000
64.2400 304.0000 1.0000
64.2500 311.0000 1.0000
64.2600 308.0000 1.0000
64.2700 303.0000 1.0000
64.2800 304.0000 1.0000
64.2900 294.0000 1.0000
64.3000 288.0000 1.0000
64.3100 303.0000 1.0000
64.3200 306.0000 1.0000
64.3300 268.0000 1.0000
64.3400 278.0000 1.0000
64.3500 306.0000 1.0000
64.3600 284.0000 1.0000
64.3700 278.0000 1.0000
64.3800 294.0000 1.0000
64.3900 315.0000 1.0000
64.4000 295.0000 1.0000
64.4100 291.0000 1.0000
64.4200 287.0000 1.0000
64.4300 306.0000 1.0000
64.4400 269.0000 1.0000
64.4500 282.0000 1.0000
64.4600 243.0000 1.0000
64.4700 282.0000 1.0000
64.4800 311.0000 1.0000
64.4900 278.0000 1.0000
64.5000 283.0000 1.0000
64.5100 251.0000 1.0000
64.5200 276.0000 1.0000
64.5300 292.0000 1.0000
64.5400 282.0000 1.0000
64.5500 280.0000 1.0000
64.5600 297.0000 1.0000
64.5700 287.0000 1.0000
64.5800 289.0000 1.0000
64.5900 284.0000 1.0000
64.6000 315.0000 1.0000
64.6100 250.0000 1.0000
64.6200 260.0000 1.0000
64.6300 290.0000 1.0000
64.6400 302.0000 1.0000
64.6500 272.0000 1.0000
64.6600 265.0000 1.0000
64.6700 303.0000 1.0000
64.6800 297.0000 1.0000
64.6900 286.0000 1.0000
64.7000 276.0000 1.0000
64.7100 268.0000 1.0000
64.7200 274.0000 1.0000
64.7300 259.0000 1.0000
64.7400 275.0000 1.0000
64.7500 271.0000 1.0000
64.7600 279.0000 1.0000
64.7700 283.0000 1.0000
64.7800 287.0000 1.0000
64.7900 301.0000 1.0000
64.8000 292.0000 1.0000
64.8100 283.0000 1.0000
64.8200 279.0000 1.0000
64.8300 288.0000 1.0000
64.8400 277.0000 1.0000
64.8500 287.0000 1.0000
64.8600 283.0000 1.0000
64.8700 266.0000 1.0000
64.8800 271.0000 1.0000
64.8900 265.0000 1.0000
64.9000 268.0000 1.0000
64.9100 268.0000 1.0000
64.9200 290.0000 1.0000
64.9300 262.0000 1.0000
64.9400 288.0000 1.0000
64.9500 292.0000 1.0000
64.9600 296.0000 1.0000
64.9700 304.0000 1.0000
64.9800 269.0000 1.0000
64.9900 281.0000 1.0000
65.0000 314.0000 1.0000
65.0100 293.0000 1.0000
65.0200 305.0000 1.0000
65.0300 296.0000 1.0000
65.0400 274.0000 1.0000
65.0500 297.0000 1.0000
65.0600 282.0000 1.0000
65.0700 286.0000 1.0000
65.0800 320.0000 1.0000
65.0900 285.0000 1.0000
65.1000 288.0000 1.0000
65.1100 295.0000 1.0000
65.1200 312.0000 1.0000
65.1300 305.0000 1.0000
65.1400 319.0000 1.0000
65.1500 328.0000 1.0000
65.1600 329.0000 1.0000
65.1700 365.0000 1.0000
65.1800 316.0000 1.0000
65.1900 338.0000 1.0000
65.2000 344.0000 1.0000
65.2100 364.0000 1.0000
65.2200 355.0000 1.0000
65.2300 401.0000 1.0000
65.2400 375.0000 1.0000
65.2500 354.0000 1.0000
65.2600 382.0000 1.0000
65.2700 371.0000 1.0000
65.2800 400.0000 1.0000
65.2900 368.0000 1.0000
65.3000 419.0000 1.0000
65.3100 415.0000 1.0000
65.3200 462.0000 1.0000
65.3300 420.0000 1.0000
65.3400 423.0000 1.0000
65.3500 477.0000 1.0000
65.3600 482.0000 1.0000
65.3700 492.0000 1.0000
65.3800 566.0000 1.0000
65.3900 558.0000 1.0000
65.4000 593.0000 1.0000
65.4100 585.0000 1.0000
65.4200 626.0000 1.0000
65.4300 673.0000 1.0000
65.4400 712.0000 1.0000
65.4500 707.0000 1.0000
65.4600 764.0000 1.0000
65.4700 772.0000 1.0000
65.4800 819.0000 1.0000
65.4900 840.0000 1.0000
65.5000 895.0000 1.0000
65.5100 943.0000 1.0000
65.5200 929.0000 1.0000
65.5300 942.0000 1.0000
65.5400 982.0000 1.0000
65.5500 1037.0000 1.0000
65.5600 1023.0000 1.0000
65.5700 1011.0000 1.0000
65.5800 996.0000 1.0000
65.5900 1025.0000 1.0000
65.6000 982.0000 1.0000
65.6100 980.0000 1.0000
65.6200 992.0000 1.0000
65.6300 969.0000 1.0000
65.6400 948.0000 1.0000
65.6500 889.0000 1.0000
65.6600 919.0000 1.0000
65.6700 865.0000 1.0000
65.6800 856.0000 1.0000
65.6900 815.0000 1.0000
65.7000 855.0000 1.0000
65.7100 785.0000 1.0000
65.7200 764.0000 1.0000
65.7300 790.0000 1.0000
65.7400 806.0000 1.0000
65.7500 774.0000 1.0000
65.7600 759.0000 1.0000
65.7700 739.0000 1.0000
65.7800 653.0000 1.0000
65.7900 696.0000 1.0000
65.8000 630.0000 1.0000
65.8100 629.0000 1.0000
65.8200 607.0000 1.0000
65.8300 611.0000 1.0000
65.8400 587.0000 1.0000
65.8500 578.0000 1.0000
65.8600 504.0000 1.0000
65.8700 484.0000 1.0000
65.8800 453.0000 1.0000
65.8900 468.0000 1.0000
65.9000 465.0000 1.0000
65.9100 421.0000 1.0000
65.9200 440.0000 1.0000
65.9300 427.0000 1.0000
65.9400 410.0000 1.0000
65.9500 389.0000 1.0000
65.9600 419.0000 1.0000
65.9700 373.0000 1.0000
65.9800 337.0000 1.0000
65.9900 353.0000 1.0000
66.0000 365.0000 1.0000
66.0100 359.0000 1.0000
66.0200 342.0000 1.0000
66.0300 343.0000 1.0000
66.0400 338.0000 1.0000
66.0500 336.0000 1.0000
66.0600 305.0000 1.0000
66.0700 312.0000 1.0000
66.0800 311.0000 1.0000
66.0900 299.0000 1.0000
66.1000 305.0000 1.0000
66.1100 294.0000 1.0000
66.1200 305.0000 1.0000
66.1300 300.0000 1.0000
66.1400 281.0000 1.0000
66.1500 304.0000 1.0000
66.1600 288.0000 1.0000
66.1700 320.0000 1.0000
66.1800 290.0000 1.0000
66.1900 277.0000 1.0000
66.2000 282.0000 1.0000
66.2100 287.0000 1.0000
66.2200 270.0000 1.0000
66.2300 294.0000 1.0000
66.2400 276.0000 1.0000
66.2500 288.0000 1.0000
66.2600 275.0000 1.0000
66.2700 276.0000 1.0000
66.2800 271.0000 1.0000
66.2900 284.0000 1.0000
66.3000 260.0000 1.0000
66.3100 304.0000 1.0000
66.3200 266.0000 1.0000
66.3300 271.0000 1.0000
66.3400 261.0000 1.0000
66.3500 257.0000 1.0000
66.3600 272.0000 1.0000
66.3700 255.0000 1.0000
66.3800 304.0000 1.0000
66.3900 283.0000 1.0000
66.4000 280.0000 1.0000
66.4100 261.0000 1.0000
66.4200 280.0000 1.0000
66.4300 279.0000 1.0000
66.4400 274.0000 1.0000
66.4500 262.0000 1.0000
66.4600 270.0000 1.0000
66.4700 291.0000 1.0000
66.4800 256.0000 1.0000
66.4900 229.0000 1.0000
66.5000 268.0000 1.0000
66.5100 267.0000 1.0000
66.5200 250.0000 1.0000
66.5300 239.0000 1.0000
66.5400 274.0000 1.0000
66.5500 256.0000 1.0000
66.5600 271.0000 1.0000
66.5700 263.0000 1.0000
66.5800 224.0000 1.0000
66.5900 286.0000 1.0000
66.6000 251.0000 1.0000
66.6100 242.0000 1.0000
66.6200 247.0000 1.0000
66.6300 275.0000 1.0000
66.6400 277.0000 1.0000
66.6500 273.0000 1.0000
66.6600 266.0000 1.0000
66.6700 248.0000 1.0000
66.6800 240.0000 1.0000
66.6900 266.0000 1.0000
66.7000 261.0000 1.0000
66.7100 253.0000 1.0000
66.7200 254.0000 1.0000
66.7300 238.0000 1.0000
66.7400 265.0000 1.0000
66.7500 240.0000 1.0000
66.7600 254.0000 1.0000
66.7700 275.0000 1.0000
66.7800 267.0000 1.0000
66.7900 261.0000 1.0000
66.8000 265.0000 1.0000
66.8100 267.0000 1.0000
66.8200 253.0000 1.0000
66.8300 256.0000 1.0000
66.8400 255.0000 1.0000
66.8500 262.0000 1.0000
66.8600 249.0000 1.0000
66.8700 268.0000 1.0000
66.8800 267.0000 1.0000
66.8900 252.0000 1.0000
66.9000 246.0000 1.0000
66.9100 228.0000 1.0000
66.9200 248.0000 1.0000
66.9300 249.0000 1.0000
66.9400 243.0000 1.0000
66.9500 253.0000 1.0000
66.9600 241.0000 1.0000
66.9700 263.0000 1.0000
66.9800 254.0000 1.0000
66.9900 231.0000 1.0000
67.0000 245.0000 1.0000
67.0100 260.0000 1.0000
67.0200 282.0000 1.0000
67.0300 251.0000 1.0000
67.0400 269.0000 1.0000
67.0500 261.0000 1.0000
67.0600 239.0000 1.0000
67.0700 270.0000 1.0000
67.0800 233.0000 1.0000
67.0900 219.0000 1.0000
67.1000 242.0000 1.0000
67.1100 245.0000 1.0000
67.1200 252.0000 1.0000
67.1300 250.0000 1.0000
67.1400 225.0000 1.0000
67.1500 248.0000 1.0000
67.1600 260.0000 1.0000
67.1700 248.0000 1.0000
67.1800 241.0000 1.0000
67.1900 243.0000 1.0000
67.2000 261.0000 1.0000
67.2100 251.0000 1.0000
67.2200 226.0000 1.0000
67.2300 232.0000 1.0000
67.2400 253.0000 1.0000
67.2500 259.0000 1.0000
67.2600 256.0000 1.0000
67.2700 249.0000 1.0000
67.2800 264.0000 1.0000
67.2900 268.0000 1.0000
67.3000 254.0000 1.0000
67.3100 240.0000 1.0000
67.3200 225.0000 1.0000
67.3300 219.0000 1.0000
67.3400 249.0000 1.0000
67.3500 233.0000 1.0000
67.3600 250.0000 1.0000
67.3700 254.0000 1.0000
67.3800 222.0000 1.0000
67.3900 238.0000 1.0000
67.4000 249.0000 1.0000
67.4100 251.0000 1.0000
67.4200 237.0000 1.0000
67.4300 242.0000 1.0000
67.4400 221.0000 1.0000
67.4500 266.0000 1.0000
67.4600 255.0000 1.0000
67.4700 262.0000 1.0000
67.4800 255.0000 1.0000
67.4900 250.0000 1.0000
67.5000 221.0000 1.0000
67.5100 214.0000 1.0000
67.5200 241.0000 1.0000
67.5300 241.0000 1.0000
67.5400 222.0000 1.0000
67.5500 239.0000 1.0000
67.5600 254.0000 1.0000
67.5700 249.0000 1.0000
67.5800 255.0000 1.0000
67.5900 252.0000 1.0000
67.6000 248.0000 1.0000
67.6100 236.0000 1.0000
67.6200 235.0000 1.0000
67.6300 260.0000 1.0000
67.6400 244.0000 1.0000
67.6500 239.0000 1.0000
67.6600 248.0000 1.0000
67.6700 252.0000 1.0000
67.6800 216.0000 1.0000
67.6900 237.0000 1.0000
67.7000 228.0000 1.0000
67.7100 239.0000 1.0000
67.7200 219.0000 1.0000
67.7300 249.0000 1.0000
67.7400 256.0000 1.0000
67.7500 238.0000 1.0000
67.7600 237.0000 1.0000
67.7700 229.0000 1.0000
67.7800 253.0000 1.0000
67.7900 271.0000 1.0000
67.8000 265.0000 1.0000
67.8100 274.0000 1.0000
67.8200 237.0000 1.0000
67.8300 258.0000 1.0000
67.8400 262.0000 1.0000
67.8500 252.0000 1.0000
67.8600 255.0000 1.0000
67.8700 254.0000 1.0000
67.8800 245.0000 1.0000
67.8900 264.0000 1.0000
67.9000 220.0000 1.0000
67.9100 232.0000 1.0000
67.9200 236.0000 1.0000
67.9300 229.0000 1.0000
67.9400 219.0000 1.0000
67.9500 231.0000 1.0000
67.9600 255.0000 1.0000
67.9700 240.0000 1.0000
67.9800 269.0000 1.0000
67.9900 239.0000 1.0000
68.0000 249.0000 1.0000
68.0100 235.0000 1.0000
68.0200 222.0000 1.0000
68.0300 258.0000 1.0000
68.0400 229.0000 1.0000
68.0500 249.0000 1.0000
68.0600 242.0000 1.0000
68.0700 236.0000 1.0000
68.0800 240.0000 1.0000
68.0900 224.0000 1.0000
68.1000 232.0000 1.0000
68.1100 249.0000 1.0000
68.1200 248.0000 1.0000
68.1300 218.0000 1.0000
68.1400 212.0000 1.0000
68.1500 261.0000 1.0000
68.1600 239.0000 1.0000
68.1700 225.0000 1.0000
68.1800 217.0000 1.0000
68.1900 241.0000 1.0000
68.2000 222.0000 1.0000
68.2100 242.0000 1.0000
68.2200 269.0000 1.0000
68.2300 242.0000 1.0000
68.2400 227.0000 1.0000
68.2500 241.0000 1.0000
68.2600 223.0000 1.0000
68.2700 232.0000 1.0000
68.2800 257.0000 1.0000
68.2900 232.0000 1.0000
68.3000 225.0000 1.0000
68.3100 233.0000 1.0000
68.3200 236.0000 1.0000
68.3300 248.0000 1.0000
68.3400 248.0000 1.0000
68.3500 225.0000 1.0000
68.3600 232.0000 1.0000
68.3700 241.0000 1.0000
68.3800 247.0000 1.0000
68.3900 231.0000 1.0000
68.4000 251.0000 1.0000
68.4100 242.0000 1.0000
68.4200 230.0000 1.0000
68.4300 250.0000 1.0000
68.4400 232.0000 1.0000
68.4500 238.0000 1.0000
68.4600 264.0000 1.0000
68.4700 246.0000 1.0000
68.4800 258.0000 1.0000
68.4900 213.0000 1.0000
68.5000 243.0000 1.0000
68.5100 232.0000 1.0000
68.5200 262.0000 1.0000
68.5300 232.0000 1.0000
68.5400 238.0000 1.0000
68.5500 239.0000 1.0000
68.5600 245.0000 1.0000
68.5700 237.0000 1.0000
68.5800 239.0000 1.0000
68.5900 237.0000 1.0000
68.6000 231.0000 1.0000
68.6100 241.0000 1.0000
68.6200 225.0000 1.0000
68.6300 256.0000 1.0000
68.6400 253.0000 1.0000
68.6500 235.0000 1.0000
68.6600 247.0000 1.0000
68.6700 238.0000 1.0000
68.6800 225.0000 1.0000
68.6900 237.0000 1.0000
68.7000 233.0000 1.0000
68.7100 237.0000 1.0000
68.7200 262.0000 1.0000
68.7300 269.0000 1.0000
68.7400 259.0000 1.0000
68.7500 235.0000 1.0000
68.7600 231.0000 1.0000
68.7700 278.0000 1.0000
68.7800 235.0000 1.0000
68.7900 232.0000 1.0000
68.8000 250.0000 1.0000
68.8100 254.0000 1.0000
68.8200 240.0000 1.0000
68.8300 237.0000 1.0000
68.8400 222.0000 1.0000
68.8500 226.0000 1.0000
68.8600 244.0000 1.0000
68.8700 219.0000 1.0000
68.8800 257.0000 1.0000
68.8900 244.0000 1.0000
68.9000 235.0000 1.0000
68.9100 242.0000 1.0000
68.9200 226.0000 1.0000
68.9300 241.0000 1.0000
68.9400 200.0000 1.0000
68.9500 228.0000 1.0000
68.9600 240.0000 1.0000
68.9700 247.0000 1.0000
68.9800 251.0000 1.0000
68.9900 214.0000 1.0000
69.0000 257.0000 1.0000
69.0100 218.0000 1.0000
69.0200 238.0000 1.0000
69.0300 241.0000 1.0000
69.0400 234.0000 1.0000
69.0500 246.0000 1.0000
69.0600 220.0000 1.0000
69.0700 254.0000 1.0000
69.0800 246.0000 1.0000
69.0900 259.0000 1.0000
69.1000 252.0000 1.0000
69.1100 240.0000 1.0000
69.1200 248.0000 1.0000
69.1300 242.0000 1.0000
69.1400 256.0000 1.0000
69.1500 277.0000 1.0000
69.1600 243.0000 1.0000
69.1700 239.0000 1.0000
69.1800 221.0000 1.0000
69.1900 218.0000 1.0000
69.2000 228.0000 1.0000
69.2100 236.0000 1.0000
69.2200 235.0000 1.0000
69.2300 237.0000 1.0000
69.2400 230.0000 1.0000
69.2500 245.0000 1.0000
69.2600 226.0000 1.0000
69.2700 235.0000 1.0000
69.2800 256.0000 1.0000
69.2900 218.0000 1.0000
69.3000 217.0000 1.0000
69.3100 213.0000 1.0000
69.3200 212.0000 1.0000
69.3300 223.0000 1.0000
69.3400 225.0000 1.0000
69.3500 247.0000 1.0000
69.3600 237.0000 1.0000
69.3700 228.0000 1.0000
69.3800 234.0000 1.0000
69.3900 231.0000 1.0000
69.4000 216.0000 1.0000
69.4100 235.0000 1.0000
69.4200 239.0000 1.0000
69.4300 212.0000 1.0000
69.4400 228.0000 1.0000
69.4500 257.0000 1.0000
69.4600 253.0000 1.0000
69.4700 250.0000 1.0000
69.4800 249.0000 1.0000
69.4900 246.0000 1.0000
69.5000 267.0000 1.0000
69.5100 241.0000 1.0000
69.5200 221.0000 1.0000
69.5300 247.0000 1.0000
69.5400 280.0000 1.0000
69.5500 249.0000 1.0000
69.5600 232.0000 1.0000
69.5700 223.0000 1.0000
69.5800 215.0000 1.0000
69.5900 231.0000 1.0000
69.6000 237.0000 1.0000
69.6100 245.0000 1.0000
69.6200 250.0000 1.0000
69.6300 228.0000 1.0000
69.6400 210.0000 1.0000
69.6500 222.0000 1.0000
69.6600 229.0000 1.0000
69.6700 231.0000 1.0000
69.6800 225.0000 1.0000
69.6900 233.0000 1.0000
69.7000 229.0000 1.0000
69.7100 214.0000 1.0000
69.7200 221.0000 1.0000
69.7300 237.0000 1.0000
69.7400 256.0000 1.0000
69.7500 227.0000 1.0000
69.7600 215.0000 1.0000
69.7700 202.0000 1.0000
69.7800 241.0000 1.0000
69.7900 225.0000 1.0000
69.8000 241.0000 1.0000
69.8100 219.0000 1.0000
69.8200 212.0000 1.0000
69.8300 249.0000 1.0000
69.8400 232.0000 1.0000
69.8500 228.0000 1.0000
69.8600 249.0000 1.0000
69.8700 233.0000 1.0000
69.8800 246.0000 1.0000
69.8900 223.0000 1.0000
69.9000 224.0000 1.0000
69.9100 207.0000 1.0000
69.9200 216.0000 1.0000
69.9300 247.0000 1.0000
69.9400 209.0000 1.0000
69.9500 238.0000 1.0000
69.9600 233.0000 1.0000
69.9700 228.0000 1.0000
69.9800 234.0000 1.0000
69.9900 228.0000 1.0000
70.0000 250.0000 1.0000
*RAS_INT_END
*RAS_TEMPERATURE_START
*RAS_TEMPERATURE_END
*RAS_DATA_END
