*RAS_DATA_START
*RAS_HEADER_START
*DISP_FMT_X "%.2f"
*DISP_FMT_Y "%.0f"
*DISP_FULLSCALE "13010.0000000000"
*DISP_LINE_COLOR "255.0000000000"
*DISP_LINE_STYLE "0.0000000000"
*DISP_LINE_WIDTH "0.2500000000"
*DISP_NOTE "測定データ-14"
*DISP_OFFSET_Y "0.0000000000"
*DISP_PEAKSEARCH_UNIT_Y "cps"
*DISP_RANGE_BOTTOM "0.0000000000"
*DISP_RANGE_LEFT "20.0000000000"
*DISP_RANGE_LOGCUTOFF "0.0100000000"
*DISP_RANGE_RIGHT "70.0000000000"
*DISP_RANGE_TOP "13010.0000000000"
*DISP_SCALE_MODE_Y "0.0000000000"
*DISP_TAB_NAME "2θ/θ"
*DISP_TITLE_Y "強度"
*DISP_UNIT_Y "cps"
*DISP_WINDOW_NAME "MSG_MACROENGINE"
*FILE_COMMENT " "
*FILE_MD5 ""
*FILE_MEMO " "
*FILE_OPERATOR "Administrator"
*FILE_SAMPLE " "
*FILE_TYPE "RAS_RAW"
*FILE_USERGROUP "システムマネージャ"
*FILE_VERSION "1.0000000000"
*HW_ATTACHMENT_ID "ATT0025"
*HW_ATTACHMENT_NAME "標準|Standard"
*HW_COUNTER_ID-0 "CUT0025"
*HW_COUNTER_ID-1 "CUT0020"
*HW_COUNTER_ID-2 "CUT0020"
*HW_COUNTER_ID-3 "CSL0021"
*HW_COUNTER_ID-4 "CMC0021"
*HW_COUNTER_NAME-0 "D/teX Ultra|D/teX Ultra"
*HW_COUNTER_NAME-1 "None|None"
*HW_COUNTER_NAME-2 "None|None"
*HW_COUNTER_NAME-3 "BBM|BBM"
*HW_COUNTER_NAME-4 "検出器モノクロメータ|Detector monochromator"
*HW_COUNTER_SELECT_NAME "D/teX Ultra|D/teX Ultra"
*HW_GONIOMETER_ID "GON0023"
*HW_GONIOMETER_NAME "SmartLab|SmartLab"
*HW_GONIOMETER_RADIUS-0 "90.0"
*HW_GONIOMETER_RADIUS-1 "114.0"
*HW_GONIOMETER_RADIUS-2 "190.0"
*HW_GONIOMETER_RADIUS-3 "300.0"
*HW_GONIOMETER_RADIUS-4 "187.0"
*HW_GONIOMETER_RADIUS-5 "300.0"
*HW_GONIOMETER_RADIUS-6 "113.0"
*HW_GONIOMETER_RADIUS-7 "331.0"
*HW_I_OPT_ID-0 "CBO0021"
*HW_I_OPT_ID-1 "ICR0023"
*HW_I_OPT_ID-2 "ISL0021"
*HW_I_OPT_ID-3 "ISO0021"
*HW_I_OPT_ID-4 "IAD0021"
*HW_I_OPT_ID-5 "IPR0001"
*HW_I_OPT_NAME-0 "CBOユニット|CBO unit"
*HW_I_OPT_NAME-1 "標準入射光学ユニット|Standard incident optical unit"
*HW_I_OPT_NAME-2 "標準入射スリットボックス|Standard incident slit box"
*HW_I_OPT_NAME-3 "入射平行スリット|Incident parallel slit"
*HW_I_OPT_NAME-4 "長手制限スリット|Length limiting slit"
*HW_I_OPT_NAME-5 "None|None"
*HW_R_ATTENUATER_AUTOMODE "0"
*HW_R_OPT_ID-0 "RSS0021"
*HW_R_OPT_ID-1 "RCR0023"
*HW_R_OPT_ID-2 "RSO0021"
*HW_R_OPT_ID-3 "RRS0021"
*HW_R_OPT_ID-4 "ATN0021"
*HW_R_OPT_ID-5 "RFL0021"
*HW_R_OPT_ID-6 "RAD0021"
*HW_R_OPT_NAME-0 "標準受光スリットボックス1|Standard receiving slit box # 1"
*HW_R_OPT_NAME-1 "標準受光光学ユニット1|Standard receiving unit # 1"
*HW_R_OPT_NAME-2 "標準受光光学ユニット2|Standard receiving optical unit # 2"
*HW_R_OPT_NAME-3 "標準受光スリットボックス2|Standard receiving slit box # 2"
*HW_R_OPT_NAME-4 "標準アッテネータ|Standard Attenuator"
*HW_R_OPT_NAME-5 "Cu Kβ|Cu K-beta"
*HW_R_OPT_NAME-6 "調整用受光スリット|Alignment receiving slit"
*HW_SAMPLE_HOLDER_ID "SMP0023"
*HW_SAMPLE_HOLDER_NAME "標準Zステージ|Standard Z stage"
*HW_XG_CURRENT_MAX "50"
*HW_XG_CURRENT_MIN "2"
*HW_XG_CURRENT_RESOLUTION "1"
*HW_XG_CURRENT_UNIT "mA"
*HW_XG_FOCUS "1mm x 10mm"
*HW_XG_FOCUS_TYPE "Normal"
*HW_XG_ID ""
*HW_XG_NAME "3kW 封入管(ID:1200)|3kW Sealed tube(ID:1200)"
*HW_XG_TARGET_ATOMIC_NUMBER "29.0000000000"
*HW_XG_TARGET_NAME "Cu"
*HW_XG_TYPE "Hermetic"
*HW_XG_VOLTAGE_MAX "60"
*HW_XG_VOLTAGE_MIN "20"
*HW_XG_VOLTAGE_RESOLUTION "1"
*HW_XG_VOLTAGE_UNIT "kV"
*HW_XG_WATT_MAX "1.500"
*HW_XG_WATT_UNIT "kW"
*HW_XG_WAVE_LENGTH_ALPHA1 "1.540593"
*HW_XG_WAVE_LENGTH_ALPHA2 "1.544414"
*HW_XG_WAVE_LENGTH_BETA "1.392250"
*MEAS_COND_AXIS_NAME-0 "2θ/θ"
*MEAS_COND_AXIS_NAME-1 "2θ"
*MEAS_COND_AXIS_NAME-2 "ω"
*MEAS_COND_AXIS_NAME-3 "Z"
*MEAS_COND_AXIS_NAME-4 "2θ/ω"
*MEAS_COND_AXIS_NAME-5 "θs"
*MEAS_COND_AXIS_NAME-6 "θd"
*MEAS_COND_AXIS_NAME-7 "Ts"
*MEAS_COND_AXIS_NAME-8 "CBO選択スリット"
*MEAS_COND_AXIS_NAME-9 "M"
*MEAS_COND_AXIS_NAME-10 "入射平行スリット"
*MEAS_COND_AXIS_NAME-11 "入射スリット"
*MEAS_COND_AXIS_NAME-12 ""
*MEAS_COND_AXIS_NAME-13 "Zs"
*MEAS_COND_AXIS_NAME-14 "入射光学素子"
*MEAS_COND_AXIS_NAME-15 "長手制限スリット"
*MEAS_COND_AXIS_NAME-16 "センタースリット"
*MEAS_COND_AXIS_NAME-17 "フィルター"
*MEAS_COND_AXIS_NAME-18 "受光スリット1"
*MEAS_COND_AXIS_NAME-19 "受光スリット2"
*MEAS_COND_AXIS_NAME-20 "受光光学素子"
*MEAS_COND_AXIS_NAME-21 "受光平行スリット"
*MEAS_COND_AXIS_NAME-22 "調整用受光スリット"
*MEAS_COND_AXIS_NAME-23 ""
*MEAS_COND_AXIS_NAME-24 ""
*MEAS_COND_AXIS_NAME-25 "Zd"
*MEAS_COND_AXIS_NAME-26 "アッテネータ"
*MEAS_COND_AXIS_NAME-27 "検出器モノクロメータ"
*MEAS_COND_AXIS_NAME-28 "モノクロメータスリット"
*MEAS_COND_AXIS_NAME-29 "プライマリビーム"
*MEAS_COND_AXIS_NAME-30 "PHA"
*MEAS_COND_AXIS_NAME_INTERNAL-0 "TwoThetaTheta"
*MEAS_COND_AXIS_NAME_INTERNAL-1 "TwoTheta"
*MEAS_COND_AXIS_NAME_INTERNAL-2 "Omega"
*MEAS_COND_AXIS_NAME_INTERNAL-3 "Z"
*MEAS_COND_AXIS_NAME_INTERNAL-4 "TwoThetaOmega"
*MEAS_COND_AXIS_NAME_INTERNAL-5 "ThetaS"
*MEAS_COND_AXIS_NAME_INTERNAL-6 "ThetaD"
*MEAS_COND_AXIS_NAME_INTERNAL-7 "Ts"
*MEAS_COND_AXIS_NAME_INTERNAL-8 "CBO"
*MEAS_COND_AXIS_NAME_INTERNAL-9 "CBO-M"
*MEAS_COND_AXIS_NAME_INTERNAL-10 "IncidentSollerSlit"
*MEAS_COND_AXIS_NAME_INTERNAL-11 "IncidentSlitBox"
*MEAS_COND_AXIS_NAME_INTERNAL-12 "IncidentSlitBox-_Axis"
*MEAS_COND_AXIS_NAME_INTERNAL-13 "Zs"
*MEAS_COND_AXIS_NAME_INTERNAL-14 "IncidentMonochromator"
*MEAS_COND_AXIS_NAME_INTERNAL-15 "IncidentAxdSlit"
*MEAS_COND_AXIS_NAME_INTERNAL-16 "CenterSlit"
*MEAS_COND_AXIS_NAME_INTERNAL-17 "Filter"
*MEAS_COND_AXIS_NAME_INTERNAL-18 "ReceivingSlitBox1"
*MEAS_COND_AXIS_NAME_INTERNAL-19 "ReceivingSlitBox2"
*MEAS_COND_AXIS_NAME_INTERNAL-20 "ReceivingOptics"
*MEAS_COND_AXIS_NAME_INTERNAL-21 "ReceivingSollerSlit"
*MEAS_COND_AXIS_NAME_INTERNAL-22 "ReceivingAxdSlit"
*MEAS_COND_AXIS_NAME_INTERNAL-23 "ReceivingSlitBox1-_Axis"
*MEAS_COND_AXIS_NAME_INTERNAL-24 "ReceivingSlitBox2-_Axis"
*MEAS_COND_AXIS_NAME_INTERNAL-25 "ReceivingSlitBox2-Zd"
*MEAS_COND_AXIS_NAME_INTERNAL-26 "Attenuator"
*MEAS_COND_AXIS_NAME_INTERNAL-27 "CounterMonochromator"
*MEAS_COND_AXIS_NAME_INTERNAL-28 "CounterSlit"
*MEAS_COND_AXIS_NAME_INTERNAL-29 "IncidentPrimary"
*MEAS_COND_AXIS_NAME_INTERNAL-30 "PHA"
*MEAS_COND_AXIS_NAME_MAGICNO-0 "83951616.0000000000"
*MEAS_COND_AXIS_NAME_MAGICNO-1 "268632064.0000000000"
*MEAS_COND_AXIS_NAME_MAGICNO-2 "268500992.0000000000"
*MEAS_COND_AXIS_NAME_MAGICNO-3 "285278208.0000000000"
*MEAS_COND_AXIS_NAME_MAGICNO-4 "83951616.0000000000"
*MEAS_COND_AXIS_NAME_MAGICNO-5 "131072.0000000000"
*MEAS_COND_AXIS_NAME_MAGICNO-6 "131072.0000000000"
*MEAS_COND_AXIS_NAME_MAGICNO-7 "318898176.0000000000"
*MEAS_COND_AXIS_NAME_MAGICNO-8 "20971521.0000000000"
*MEAS_COND_AXIS_NAME_MAGICNO-9 "285343744.0000000000"
*MEAS_COND_AXIS_NAME_MAGICNO-10 "20971521.0000000000"
*MEAS_COND_AXIS_NAME_MAGICNO-11 "22020097.0000000000"
*MEAS_COND_AXIS_NAME_MAGICNO-12 "25165824.0000000000"
*MEAS_COND_AXIS_NAME_MAGICNO-13 "318898176.0000000000"
*MEAS_COND_AXIS_NAME_MAGICNO-14 "1.0000000000"
*MEAS_COND_AXIS_NAME_MAGICNO-15 "20971521.0000000000"
*MEAS_COND_AXIS_NAME_MAGICNO-16 "20971521.0000000000"
*MEAS_COND_AXIS_NAME_MAGICNO-17 "20971521.0000000000"
*MEAS_COND_AXIS_NAME_MAGICNO-18 "23068673.0000000000"
*MEAS_COND_AXIS_NAME_MAGICNO-19 "23068673.0000000000"
*MEAS_COND_AXIS_NAME_MAGICNO-20 "20971521.0000000000"
*MEAS_COND_AXIS_NAME_MAGICNO-21 "20971521.0000000000"
*MEAS_COND_AXIS_NAME_MAGICNO-22 "20971521.0000000000"
*MEAS_COND_AXIS_NAME_MAGICNO-23 "25165824.0000000000"
*MEAS_COND_AXIS_NAME_MAGICNO-24 "25165824.0000000000"
*MEAS_COND_AXIS_NAME_MAGICNO-25 "285343744.0000000000"
*MEAS_COND_AXIS_NAME_MAGICNO-26 "17301505.0000000000"
*MEAS_COND_AXIS_NAME_MAGICNO-27 "20971521.0000000000"
*MEAS_COND_AXIS_NAME_MAGICNO-28 "20971521.0000000000"
*MEAS_COND_AXIS_NAME_MAGICNO-29 "20971521.0000000000"
*MEAS_COND_AXIS_NAME_MAGICNO-30 "0.0000000000"
*MEAS_COND_AXIS_OFFSET-0 "-"
*MEAS_COND_AXIS_OFFSET-1 "-0.0310000000"
*MEAS_COND_AXIS_OFFSET-2 "0.4064000000"
*MEAS_COND_AXIS_OFFSET-3 "-"
*MEAS_COND_AXIS_OFFSET-4 "-"
*MEAS_COND_AXIS_OFFSET-5 "0.4064000000"
*MEAS_COND_AXIS_OFFSET-6 "-0.4374000000"
*MEAS_COND_AXIS_OFFSET-7 "-"
*MEAS_COND_AXIS_OFFSET-8 "-"
*MEAS_COND_AXIS_OFFSET-9 "-"
*MEAS_COND_AXIS_OFFSET-10 "-"
*MEAS_COND_AXIS_OFFSET-11 "-"
*MEAS_COND_AXIS_OFFSET-12 "-"
*MEAS_COND_AXIS_OFFSET-13 "-"
*MEAS_COND_AXIS_OFFSET-14 "-"
*MEAS_COND_AXIS_OFFSET-15 "-"
*MEAS_COND_AXIS_OFFSET-16 "-"
*MEAS_COND_AXIS_OFFSET-17 "-"
*MEAS_COND_AXIS_OFFSET-18 "-"
*MEAS_COND_AXIS_OFFSET-19 "-"
*MEAS_COND_AXIS_OFFSET-20 "-"
*MEAS_COND_AXIS_OFFSET-21 "-"
*MEAS_COND_AXIS_OFFSET-22 "-"
*MEAS_COND_AXIS_OFFSET-23 "-"
*MEAS_COND_AXIS_OFFSET-24 "-"
*MEAS_COND_AXIS_OFFSET-25 "-"
*MEAS_COND_AXIS_OFFSET-26 "-"
*MEAS_COND_AXIS_OFFSET-27 "-"
*MEAS_COND_AXIS_OFFSET-28 "-"
*MEAS_COND_AXIS_OFFSET-29 "-"
*MEAS_COND_AXIS_OFFSET-30 "-"
*MEAS_COND_AXIS_POSITION-0 "0.0000000000"
*MEAS_COND_AXIS_POSITION-1 "0.0000000000"
*MEAS_COND_AXIS_POSITION-2 "0.0000000000"
*MEAS_COND_AXIS_POSITION-3 "-2.8286000000"
*MEAS_COND_AXIS_POSITION-4 "0.0000000000"
*MEAS_COND_AXIS_POSITION-5 "0.0000000000"
*MEAS_COND_AXIS_POSITION-6 "0.0000000000"
*MEAS_COND_AXIS_POSITION-7 "-0.7498700000"
*MEAS_COND_AXIS_POSITION-8 "BB"
*MEAS_COND_AXIS_POSITION-9 "0.0000000000"
*MEAS_COND_AXIS_POSITION-10 "Soller_slit_5.0deg"
*MEAS_COND_AXIS_POSITION-11 "2/3deg"
*MEAS_COND_AXIS_POSITION-12 "2.2088000000"
*MEAS_COND_AXIS_POSITION-13 "-0.6412500000"
*MEAS_COND_AXIS_POSITION-14 "0.0000000000"
*MEAS_COND_AXIS_POSITION-15 "10.0mm"
*MEAS_COND_AXIS_POSITION-16 "None"
*MEAS_COND_AXIS_POSITION-17 "Cu_K-beta"
*MEAS_COND_AXIS_POSITION-18 "13.000mm"
*MEAS_COND_AXIS_POSITION-19 "13.000mm"
*MEAS_COND_AXIS_POSITION-20 "No_unit"
*MEAS_COND_AXIS_POSITION-21 "Soller_slit_5.0deg"
*MEAS_COND_AXIS_POSITION-22 "None"
*MEAS_COND_AXIS_POSITION-23 "13.0000000000"
*MEAS_COND_AXIS_POSITION-24 "13.0000000000"
*MEAS_COND_AXIS_POSITION-25 "0.0281300000"
*MEAS_COND_AXIS_POSITION-26 "Open"
*MEAS_COND_AXIS_POSITION-27 "None"
*MEAS_COND_AXIS_POSITION-28 "None"
*MEAS_COND_AXIS_POSITION-29 "None"
*MEAS_COND_AXIS_POSITION-30 "38.0000000000"
*MEAS_COND_AXIS_UNIT-0 "deg"
*MEAS_COND_AXIS_UNIT-1 "deg"
*MEAS_COND_AXIS_UNIT-2 "deg"
*MEAS_COND_AXIS_UNIT-3 "mm"
*MEAS_COND_AXIS_UNIT-4 "deg"
*MEAS_COND_AXIS_UNIT-5 "deg"
*MEAS_COND_AXIS_UNIT-6 "deg"
*MEAS_COND_AXIS_UNIT-7 "mm"
*MEAS_COND_AXIS_UNIT-8 ""
*MEAS_COND_AXIS_UNIT-9 "pulse"
*MEAS_COND_AXIS_UNIT-10 ""
*MEAS_COND_AXIS_UNIT-11 ""
*MEAS_COND_AXIS_UNIT-12 "mm"
*MEAS_COND_AXIS_UNIT-13 "mm"
*MEAS_COND_AXIS_UNIT-14 ""
*MEAS_COND_AXIS_UNIT-15 ""
*MEAS_COND_AXIS_UNIT-16 ""
*MEAS_COND_AXIS_UNIT-17 ""
*MEAS_COND_AXIS_UNIT-18 ""
*MEAS_COND_AXIS_UNIT-19 ""
*MEAS_COND_AXIS_UNIT-20 ""
*MEAS_COND_AXIS_UNIT-21 ""
*MEAS_COND_AXIS_UNIT-22 ""
*MEAS_COND_AXIS_UNIT-23 "mm"
*MEAS_COND_AXIS_UNIT-24 "mm"
*MEAS_COND_AXIS_UNIT-25 "mm"
*MEAS_COND_AXIS_UNIT-26 ""
*MEAS_COND_AXIS_UNIT-27 ""
*MEAS_COND_AXIS_UNIT-28 ""
*MEAS_COND_AXIS_UNIT-29 ""
*MEAS_COND_AXIS_UNIT-30 "div"
*MEAS_COND_COUNTER_CNTLOSS_CORR "0.0000000000"
*MEAS_COND_COUNTER_PHABASE "38.0000000000"
*MEAS_COND_COUNTER_PHAWINDOW "16.0000000000"
*MEAS_COND_COUNTER_PHA_UNIT "div"
*MEAS_COND_COUNTER_TAUDIFF "30.0000000000"
*MEAS_COND_COUNTER_TAUINT "0.0000000000"
*MEAS_COND_IRRADIATION_MODE "OFF"
*MEAS_COND_IRRADIATION_WIDTH ""
*MEAS_COND_OPT_ATTR "集中法"
*MEAS_COND_OPT_NAME "@集中法"
*MEAS_COND_UNSYMMETRIC_MODE "OFF"
*MEAS_COND_XG_CURRENT "30.0000000000"
*MEAS_COND_XG_VOLTAGE "40.0000000000"
*MEAS_COND_XG_WAVE_TYPE "Ka"
*MEAS_DATA_COUNT "5001.0000000000"
*MEAS_SCAN_AXIS_X "2θ/θ"
*MEAS_SCAN_AXIS_X_INTERNAL "TwoThetaTheta"
*MEAS_SCAN_END_TIME "08/01/23 20:46:57"
*MEAS_SCAN_MODE "CONTINUOUS"
*MEAS_SCAN_MONITOR "0"
*MEAS_SCAN_RESOLUTION_X "0.0002"
*MEAS_SCAN_SPEED "2.5"
*MEAS_SCAN_SPEED_UNIT "deg/min"
*MEAS_SCAN_START "20.0000000000"
*MEAS_SCAN_START_TIME "08/01/23 20:25:34"
*MEAS_SCAN_STEP "0.0100000000"
*MEAS_SCAN_STOP "70.0000000000"
*MEAS_SCAN_UNIT_X "deg"
*MEAS_SCAN_UNIT_Y "counts"
*RAS_HEADER_END
*RAS_INT_START
20.0000 855.0000 1.0000
20.0100 849.0000 1.0000
20.0200 877.0000 1.0000
20.0300 889.0000 1.0000
20.0400 918.0000 1.0000
20.0500 864.0000 1.0000
20.0600 869.0000 1.0000
20.0700 846.0000 1.0000
20.0800 857.0000 1.0000
20.0900 915.0000 1.0000
20.1000 848.0000 1.0000
20.1100 862.0000 1.0000
20.1200 884.0000 1.0000
20.1300 844.0000 1.0000
20.1400 900.0000 1.0000
20.1500 882.0000 1.0000
20.1600 870.0000 1.0000
20.1700 861.0000 1.0000
20.1800 832.0000 1.0000
20.1900 894.0000 1.0000
20.2000 862.0000 1.0000
20.2100 864.0000 1.0000
20.2200 847.0000 1.0000
20.2300 852.0000 1.0000
20.2400 881.0000 1.0000
20.2500 824.0000 1.0000
20.2600 815.0000 1.0000
20.2700 849.0000 1.0000
20.2800 840.0000 1.0000
20.2900 849.0000 1.0000
20.3000 830.0000 1.0000
20.3100 827.0000 1.0000
20.3200 864.0000 1.0000
20.3300 874.0000 1.0000
20.3400 844.0000 1.0000
20.3500 844.0000 1.0000
20.3600 837.0000 1.0000
20.3700 864.0000 1.0000
20.3800 918.0000 1.0000
20.3900 840.0000 1.0000
20.4000 873.0000 1.0000
20.4100 859.0000 1.0000
20.4200 845.0000 1.0000
20.4300 800.0000 1.0000
20.4400 891.0000 1.0000
20.4500 820.0000 1.0000
20.4600 846.0000 1.0000
20.4700 831.0000 1.0000
20.4800 816.0000 1.0000
20.4900 846.0000 1.0000
20.5000 876.0000 1.0000
20.5100 837.0000 1.0000
20.5200 797.0000 1.0000
20.5300 832.0000 1.0000
20.5400 870.0000 1.0000
20.5500 823.0000 1.0000
20.5600 854.0000 1.0000
20.5700 850.0000 1.0000
20.5800 850.0000 1.0000
20.5900 877.0000 1.0000
20.6000 847.0000 1.0000
20.6100 839.0000 1.0000
20.6200 866.0000 1.0000
20.6300 845.0000 1.0000
20.6400 888.0000 1.0000
20.6500 833.0000 1.0000
20.6600 855.0000 1.0000
20.6700 826.0000 1.0000
20.6800 830.0000 1.0000
20.6900 872.0000 1.0000
20.7000 862.0000 1.0000
20.7100 892.0000 1.0000
20.7200 851.0000 1.0000
20.7300 823.0000 1.0000
20.7400 869.0000 1.0000
20.7500 833.0000 1.0000
20.7600 864.0000 1.0000
20.7700 809.0000 1.0000
20.7800 829.0000 1.0000
20.7900 846.0000 1.0000
20.8000 828.0000 1.0000
20.8100 816.0000 1.0000
20.8200 872.0000 1.0000
20.8300 885.0000 1.0000
20.8400 839.0000 1.0000
20.8500 844.0000 1.0000
20.8600 833.0000 1.0000
20.8700 850.0000 1.0000
20.8800 932.0000 1.0000
20.8900 856.0000 1.0000
20.9000 836.0000 1.0000
20.9100 865.0000 1.0000
20.9200 778.0000 1.0000
20.9300 802.0000 1.0000
20.9400 824.0000 1.0000
20.9500 816.0000 1.0000
20.9600 807.0000 1.0000
20.9700 842.0000 1.0000
20.9800 885.0000 1.0000
20.9900 852.0000 1.0000
21.0000 865.0000 1.0000
21.0100 843.0000 1.0000
21.0200 843.0000 1.0000
21.0300 873.0000 1.0000
21.0400 897.0000 1.0000
21.0500 802.0000 1.0000
21.0600 801.0000 1.0000
21.0700 850.0000 1.0000
21.0800 798.0000 1.0000
21.0900 847.0000 1.0000
21.1000 856.0000 1.0000
21.1100 839.0000 1.0000
21.1200 847.0000 1.0000
21.1300 903.0000 1.0000
21.1400 876.0000 1.0000
21.1500 848.0000 1.0000
21.1600 825.0000 1.0000
21.1700 834.0000 1.0000
21.1800 778.0000 1.0000
21.1900 843.0000 1.0000
21.2000 847.0000 1.0000
21.2100 807.0000 1.0000
21.2200 843.0000 1.0000
21.2300 878.0000 1.0000
21.2400 847.0000 1.0000
21.2500 858.0000 1.0000
21.2600 845.0000 1.0000
21.2700 797.0000 1.0000
21.2800 800.0000 1.0000
21.2900 830.0000 1.0000
21.3000 829.0000 1.0000
21.3100 820.0000 1.0000
21.3200 841.0000 1.0000
21.3300 810.0000 1.0000
21.3400 809.0000 1.0000
21.3500 843.0000 1.0000
21.3600 827.0000 1.0000
21.3700 849.0000 1.0000
21.3800 873.0000 1.0000
21.3900 839.0000 1.0000
21.4000 811.0000 1.0000
21.4100 849.0000 1.0000
21.4200 851.0000 1.0000
21.4300 856.0000 1.0000
21.4400 845.0000 1.0000
21.4500 850.0000 1.0000
21.4600 845.0000 1.0000
21.4700 816.0000 1.0000
21.4800 861.0000 1.0000
21.4900 865.0000 1.0000
21.5000 865.0000 1.0000
21.5100 847.0000 1.0000
21.5200 834.0000 1.0000
21.5300 853.0000 1.0000
21.5400 808.0000 1.0000
21.5500 841.0000 1.0000
21.5600 842.0000 1.0000
21.5700 865.0000 1.0000
21.5800 830.0000 1.0000
21.5900 842.0000 1.0000
21.6000 812.0000 1.0000
21.6100 843.0000 1.0000
21.6200 843.0000 1.0000
21.6300 820.0000 1.0000
21.6400 795.0000 1.0000
21.6500 812.0000 1.0000
21.6600 801.0000 1.0000
21.6700 798.0000 1.0000
21.6800 834.0000 1.0000
21.6900 837.0000 1.0000
21.7000 845.0000 1.0000
21.7100 817.0000 1.0000
21.7200 838.0000 1.0000
21.7300 816.0000 1.0000
21.7400 851.0000 1.0000
21.7500 854.0000 1.0000
21.7600 865.0000 1.0000
21.7700 877.0000 1.0000
21.7800 852.0000 1.0000
21.7900 827.0000 1.0000
21.8000 814.0000 1.0000
21.8100 829.0000 1.0000
21.8200 805.0000 1.0000
21.8300 827.0000 1.0000
21.8400 810.0000 1.0000
21.8500 819.0000 1.0000
21.8600 856.0000 1.0000
21.8700 842.0000 1.0000
21.8800 856.0000 1.0000
21.8900 826.0000 1.0000
21.9000 809.0000 1.0000
21.9100 852.0000 1.0000
21.9200 862.0000 1.0000
21.9300 824.0000 1.0000
21.9400 811.0000 1.0000
21.9500 780.0000 1.0000
21.9600 824.0000 1.0000
21.9700 804.0000 1.0000
21.9800 837.0000 1.0000
21.9900 832.0000 1.0000
22.0000 814.0000 1.0000
22.0100 828.0000 1.0000
22.0200 801.0000 1.0000
22.0300 839.0000 1.0000
22.0400 862.0000 1.0000
22.0500 826.0000 1.0000
22.0600 824.0000 1.0000
22.0700 839.0000 1.0000
22.0800 809.0000 1.0000
22.0900 824.0000 1.0000
22.1000 879.0000 1.0000
22.1100 889.0000 1.0000
22.1200 838.0000 1.0000
22.1300 823.0000 1.0000
22.1400 792.0000 1.0000
22.1500 828.0000 1.0000
22.1600 854.0000 1.0000
22.1700 869.0000 1.0000
22.1800 821.0000 1.0000
22.1900 793.0000 1.0000
22.2000 780.0000 1.0000
22.2100 810.0000 1.0000
22.2200 820.0000 1.0000
22.2300 787.0000 1.0000
22.2400 847.0000 1.0000
22.2500 825.0000 1.0000
22.2600 824.0000 1.0000
22.2700 810.0000 1.0000
22.2800 828.0000 1.0000
22.2900 881.0000 1.0000
22.3000 804.0000 1.0000
22.3100 826.0000 1.0000
22.3200 814.0000 1.0000
22.3300 825.0000 1.0000
22.3400 871.0000 1.0000
22.3500 816.0000 1.0000
22.3600 839.0000 1.0000
22.3700 766.0000 1.0000
22.3800 810.0000 1.0000
22.3900 857.0000 1.0000
22.4000 830.0000 1.0000
22.4100 861.0000 1.0000
22.4200 845.0000 1.0000
22.4300 806.0000 1.0000
22.4400 839.0000 1.0000
22.4500 800.0000 1.0000
22.4600 817.0000 1.0000
22.4700 765.0000 1.0000
22.4800 853.0000 1.0000
22.4900 769.0000 1.0000
22.5000 833.0000 1.0000
22.5100 807.0000 1.0000
22.5200 851.0000 1.0000
22.5300 818.0000 1.0000
22.5400 797.0000 1.0000
22.5500 816.0000 1.0000
22.5600 779.0000 1.0000
22.5700 783.0000 1.0000
22.5800 849.0000 1.0000
22.5900 802.0000 1.0000
22.6000 807.0000 1.0000
22.6100 834.0000 1.0000
22.6200 829.0000 1.0000
22.6300 819.0000 1.0000
22.6400 788.0000 1.0000
22.6500 828.0000 1.0000
22.6600 824.0000 1.0000
22.6700 858.0000 1.0000
22.6800 820.0000 1.0000
22.6900 798.0000 1.0000
22.7000 821.0000 1.0000
22.7100 834.0000 1.0000
22.7200 817.0000 1.0000
22.7300 762.0000 1.0000
22.7400 791.0000 1.0000
22.7500 824.0000 1.0000
22.7600 814.0000 1.0000
22.7700 859.0000 1.0000
22.7800 840.0000 1.0000
22.7900 872.0000 1.0000
22.8000 862.0000 1.0000
22.8100 794.0000 1.0000
22.8200 777.0000 1.0000
22.8300 824.0000 1.0000
22.8400 829.0000 1.0000
22.8500 808.0000 1.0000
22.8600 804.0000 1.0000
22.8700 812.0000 1.0000
22.8800 811.0000 1.0000
22.8900 813.0000 1.0000
22.9000 784.0000 1.0000
22.9100 872.0000 1.0000
22.9200 818.0000 1.0000
22.9300 762.0000 1.0000
22.9400 800.0000 1.0000
22.9500 829.0000 1.0000
22.9600 822.0000 1.0000
22.9700 781.0000 1.0000
22.9800 807.0000 1.0000
22.9900 787.0000 1.0000
23.0000 813.0000 1.0000
23.0100 779.0000 1.0000
23.0200 824.0000 1.0000
23.0300 806.0000 1.0000
23.0400 769.0000 1.0000
23.0500 797.0000 1.0000
23.0600 786.0000 1.0000
23.0700 786.0000 1.0000
23.0800 821.0000 1.0000
23.0900 826.0000 1.0000
23.1000 854.0000 1.0000
23.1100 830.0000 1.0000
23.1200 763.0000 1.0000
23.1300 778.0000 1.0000
23.1400 847.0000 1.0000
23.1500 802.0000 1.0000
23.1600 787.0000 1.0000
23.1700 825.0000 1.0000
23.1800 794.0000 1.0000
23.1900 772.0000 1.0000
23.2000 781.0000 1.0000
23.2100 808.0000 1.0000
23.2200 803.0000 1.0000
23.2300 775.0000 1.0000
23.2400 789.0000 1.0000
23.2500 834.0000 1.0000
23.2600 876.0000 1.0000
23.2700 826.0000 1.0000
23.2800 770.0000 1.0000
23.2900 764.0000 1.0000
23.3000 783.0000 1.0000
23.3100 827.0000 1.0000
23.3200 777.0000 1.0000
23.3300 784.0000 1.0000
23.3400 793.0000 1.0000
23.3500 830.0000 1.0000
23.3600 782.0000 1.0000
23.3700 793.0000 1.0000
23.3800 800.0000 1.0000
23.3900 800.0000 1.0000
23.4000 793.0000 1.0000
23.4100 798.0000 1.0000
23.4200 830.0000 1.0000
23.4300 810.0000 1.0000
23.4400 824.0000 1.0000
23.4500 777.0000 1.0000
23.4600 819.0000 1.0000
23.4700 857.0000 1.0000
23.4800 855.0000 1.0000
23.4900 828.0000 1.0000
23.5000 783.0000 1.0000
23.5100 838.0000 1.0000
23.5200 867.0000 1.0000
23.5300 814.0000 1.0000
23.5400 810.0000 1.0000
23.5500 794.0000 1.0000
23.5600 812.0000 1.0000
23.5700 832.0000 1.0000
23.5800 803.0000 1.0000
23.5900 799.0000 1.0000
23.6000 784.0000 1.0000
23.6100 775.0000 1.0000
23.6200 817.0000 1.0000
23.6300 785.0000 1.0000
23.6400 823.0000 1.0000
23.6500 830.0000 1.0000
23.6600 810.0000 1.0000
23.6700 780.0000 1.0000
23.6800 812.0000 1.0000
23.6900 777.0000 1.0000
23.7000 803.0000 1.0000
23.7100 821.0000 1.0000
23.7200 832.0000 1.0000
23.7300 829.0000 1.0000
23.7400 817.0000 1.0000
23.7500 811.0000 1.0000
23.7600 850.0000 1.0000
23.7700 795.0000 1.0000
23.7800 803.0000 1.0000
23.7900 830.0000 1.0000
23.8000 799.0000 1.0000
23.8100 841.0000 1.0000
23.8200 784.0000 1.0000
23.8300 831.0000 1.0000
23.8400 829.0000 1.0000
23.8500 847.0000 1.0000
23.8600 822.0000 1.0000
23.8700 851.0000 1.0000
23.8800 827.0000 1.0000
23.8900 820.0000 1.0000
23.9000 821.0000 1.0000
23.9100 829.0000 1.0000
23.9200 841.0000 1.0000
23.9300 795.0000 1.0000
23.9400 803.0000 1.0000
23.9500 839.0000 1.0000
23.9600 843.0000 1.0000
23.9700 848.0000 1.0000
23.9800 799.0000 1.0000
23.9900 844.0000 1.0000
24.0000 886.0000 1.0000
24.0100 869.0000 1.0000
24.0200 889.0000 1.0000
24.0300 948.0000 1.0000
24.0400 940.0000 1.0000
24.0500 945.0000 1.0000
24.0600 927.0000 1.0000
24.0700 896.0000 1.0000
24.0800 927.0000 1.0000
24.0900 980.0000 1.0000
24.1000 988.0000 1.0000
24.1100 930.0000 1.0000
24.1200 1031.0000 1.0000
24.1300 978.0000 1.0000
24.1400 902.0000 1.0000
24.1500 981.0000 1.0000
24.1600 938.0000 1.0000
24.1700 929.0000 1.0000
24.1800 857.0000 1.0000
24.1900 895.0000 1.0000
24.2000 870.0000 1.0000
24.2100 865.0000 1.0000
24.2200 821.0000 1.0000
24.2300 839.0000 1.0000
24.2400 845.0000 1.0000
24.2500 809.0000 1.0000
24.2600 860.0000 1.0000
24.2700 830.0000 1.0000
24.2800 784.0000 1.0000
24.2900 801.0000 1.0000
24.3000 807.0000 1.0000
24.3100 821.0000 1.0000
24.3200 859.0000 1.0000
24.3300 795.0000 1.0000
24.3400 813.0000 1.0000
24.3500 810.0000 1.0000
24.3600 876.0000 1.0000
24.3700 802.0000 1.0000
24.3800 773.0000 1.0000
24.3900 788.0000 1.0000
24.4000 796.0000 1.0000
24.4100 790.0000 1.0000
24.4200 759.0000 1.0000
24.4300 819.0000 1.0000
24.4400 819.0000 1.0000
24.4500 819.0000 1.0000
24.4600 808.0000 1.0000
24.4700 816.0000 1.0000
24.4800 835.0000 1.0000
24.4900 771.0000 1.0000
24.5000 786.0000 1.0000
24.5100 829.0000 1.0000
24.5200 771.0000 1.0000
24.5300 753.0000 1.0000
24.5400 787.0000 1.0000
24.5500 791.0000 1.0000
24.5600 788.0000 1.0000
24.5700 808.0000 1.0000
24.5800 805.0000 1.0000
24.5900 785.0000 1.0000
24.6000 782.0000 1.0000
24.6100 749.0000 1.0000
24.6200 823.0000 1.0000
24.6300 791.0000 1.0000
24.6400 775.0000 1.0000
24.6500 819.0000 1.0000
24.6600 830.0000 1.0000
24.6700 791.0000 1.0000
24.6800 816.0000 1.0000
24.6900 773.0000 1.0000
24.7000 840.0000 1.0000
24.7100 775.0000 1.0000
24.7200 790.0000 1.0000
24.7300 829.0000 1.0000
24.7400 849.0000 1.0000
24.7500 820.0000 1.0000
24.7600 760.0000 1.0000
24.7700 780.0000 1.0000
24.7800 781.0000 1.0000
24.7900 788.0000 1.0000
24.8000 776.0000 1.0000
24.8100 789.0000 1.0000
24.8200 814.0000 1.0000
24.8300 823.0000 1.0000
24.8400 805.0000 1.0000
24.8500 790.0000 1.0000
24.8600 825.0000 1.0000
24.8700 776.0000 1.0000
24.8800 830.0000 1.0000
24.8900 817.0000 1.0000
24.9000 767.0000 1.0000
24.9100 782.0000 1.0000
24.9200 786.0000 1.0000
24.9300 786.0000 1.0000
24.9400 778.0000 1.0000
24.9500 792.0000 1.0000
24.9600 776.0000 1.0000
24.9700 772.0000 1.0000
24.9800 772.0000 1.0000
24.9900 813.0000 1.0000
25.0000 812.0000 1.0000
25.0100 784.0000 1.0000
25.0200 811.0000 1.0000
25.0300 758.0000 1.0000
25.0400 797.0000 1.0000
25.0500 743.0000 1.0000
25.0600 791.0000 1.0000
25.0700 821.0000 1.0000
25.0800 783.0000 1.0000
25.0900 812.0000 1.0000
25.1000 822.0000 1.0000
25.1100 852.0000 1.0000
25.1200 790.0000 1.0000
25.1300 787.0000 1.0000
25.1400 828.0000 1.0000
25.1500 817.0000 1.0000
25.1600 804.0000 1.0000
25.1700 770.0000 1.0000
25.1800 799.0000 1.0000
25.1900 816.0000 1.0000
25.2000 789.0000 1.0000
25.2100 838.0000 1.0000
25.2200 783.0000 1.0000
25.2300 842.0000 1.0000
25.2400 763.0000 1.0000
25.2500 766.0000 1.0000
25.2600 756.0000 1.0000
25.2700 802.0000 1.0000
25.2800 792.0000 1.0000
25.2900 756.0000 1.0000
25.3000 754.0000 1.0000
25.3100 763.0000 1.0000
25.3200 793.0000 1.0000
25.3300 819.0000 1.0000
25.3400 813.0000 1.0000
25.3500 829.0000 1.0000
25.3600 797.0000 1.0000
25.3700 802.0000 1.0000
25.3800 773.0000 1.0000
25.3900 817.0000 1.0000
25.4000 775.0000 1.0000
25.4100 764.0000 1.0000
25.4200 825.0000 1.0000
25.4300 818.0000 1.0000
25.4400 848.0000 1.0000
25.4500 803.0000 1.0000
25.4600 786.0000 1.0000
25.4700 800.0000 1.0000
25.4800 797.0000 1.0000
25.4900 814.0000 1.0000
25.5000 812.0000 1.0000
25.5100 795.0000 1.0000
25.5200 794.0000 1.0000
25.5300 806.0000 1.0000
25.5400 791.0000 1.0000
25.5500 781.0000 1.0000
25.5600 808.0000 1.0000
25.5700 778.0000 1.0000
25.5800 795.0000 1.0000
25.5900 824.0000 1.0000
25.6000 799.0000 1.0000
25.6100 775.0000 1.0000
25.6200 804.0000 1.0000
25.6300 831.0000 1.0000
25.6400 799.0000 1.0000
25.6500 779.0000 1.0000
25.6600 815.0000 1.0000
25.6700 787.0000 1.0000
25.6800 798.0000 1.0000
25.6900 799.0000 1.0000
25.7000 782.0000 1.0000
25.7100 835.0000 1.0000
25.7200 759.0000 1.0000
25.7300 778.0000 1.0000
25.7400 825.0000 1.0000
25.7500 862.0000 1.0000
25.7600 814.0000 1.0000
25.7700 767.0000 1.0000
25.7800 814.0000 1.0000
25.7900 822.0000 1.0000
25.8000 813.0000 1.0000
25.8100 807.0000 1.0000
25.8200 865.0000 1.0000
25.8300 838.0000 1.0000
25.8400 773.0000 1.0000
25.8500 808.0000 1.0000
25.8600 815.0000 1.0000
25.8700 781.0000 1.0000
25.8800 797.0000 1.0000
25.8900 836.0000 1.0000
25.9000 825.0000 1.0000
25.9100 824.0000 1.0000
25.9200 820.0000 1.0000
25.9300 850.0000 1.0000
25.9400 802.0000 1.0000
25.9500 790.0000 1.0000
25.9600 798.0000 1.0000
25.9700 837.0000 1.0000
25.9800 869.0000 1.0000
25.9900 870.0000 1.0000
26.0000 892.0000 1.0000
26.0100 841.0000 1.0000
26.0200 818.0000 1.0000
26.0300 831.0000 1.0000
26.0400 812.0000 1.0000
26.0500 860.0000 1.0000
26.0600 893.0000 1.0000
26.0700 866.0000 1.0000
26.0800 890.0000 1.0000
26.0900 902.0000 1.0000
26.1000 875.0000 1.0000
26.1100 906.0000 1.0000
26.1200 896.0000 1.0000
26.1300 928.0000 1.0000
26.1400 970.0000 1.0000
26.1500 971.0000 1.0000
26.1600 991.0000 1.0000
26.1700 1008.0000 1.0000
26.1800 1019.0000 1.0000
26.1900 1009.0000 1.0000
26.2000 1077.0000 1.0000
26.2100 1141.0000 1.0000
26.2200 1108.0000 1.0000
26.2300 1082.0000 1.0000
26.2400 1176.0000 1.0000
26.2500 1157.0000 1.0000
26.2600 1218.0000 1.0000
26.2700 1208.0000 1.0000
26.2800 1285.0000 1.0000
26.2900 1339.0000 1.0000
26.3000 1369.0000 1.0000
26.3100 1460.0000 1.0000
26.3200 1543.0000 1.0000
26.3300 1586.0000 1.0000
26.3400 1640.0000 1.0000
26.3500 1701.0000 1.0000
26.3600 1860.0000 1.0000
26.3700 1969.0000 1.0000
26.3800 2138.0000 1.0000
26.3900 2122.0000 1.0000
26.4000 2226.0000 1.0000
26.4100 2288.0000 1.0000
26.4200 2447.0000 1.0000
26.4300 2551.0000 1.0000
26.4400 2585.0000 1.0000
26.4500 2602.0000 1.0000
26.4600 2589.0000 1.0000
26.4700 2518.0000 1.0000
26.4800 2441.0000 1.0000
26.4900 2347.0000 1.0000
26.5000 2343.0000 1.0000
26.5100 2271.0000 1.0000
26.5200 2094.0000 1.0000
26.5300 1966.0000 1.0000
26.5400 2031.0000 1.0000
26.5500 1854.0000 1.0000
26.5600 1707.0000 1.0000
26.5700 1666.0000 1.0000
26.5800 1582.0000 1.0000
26.5900 1497.0000 1.0000
26.6000 1369.0000 1.0000
26.6100 1352.0000 1.0000
26.6200 1333.0000 1.0000
26.6300 1254.0000 1.0000
26.6400 1248.0000 1.0000
26.6500 1213.0000 1.0000
26.6600 1148.0000 1.0000
26.6700 1158.0000 1.0000
26.6800 1089.0000 1.0000
26.6900 1019.0000 1.0000
26.7000 1017.0000 1.0000
26.7100 1015.0000 1.0000
26.7200 988.0000 1.0000
26.7300 995.0000 1.0000
26.7400 927.0000 1.0000
26.7500 959.0000 1.0000
26.7600 973.0000 1.0000
26.7700 899.0000 1.0000
26.7800 929.0000 1.0000
26.7900 955.0000 1.0000
26.8000 847.0000 1.0000
26.8100 918.0000 1.0000
26.8200 860.0000 1.0000
26.8300 916.0000 1.0000
26.8400 902.0000 1.0000
26.8500 853.0000 1.0000
26.8600 851.0000 1.0000
26.8700 855.0000 1.0000
26.8800 844.0000 1.0000
26.8900 869.0000 1.0000
26.9000 834.0000 1.0000
26.9100 836.0000 1.0000
26.9200 856.0000 1.0000
26.9300 834.0000 1.0000
26.9400 863.0000 1.0000
26.9500 825.0000 1.0000
26.9600 862.0000 1.0000
26.9700 754.0000 1.0000
26.9800 865.0000 1.0000
26.9900 816.0000 1.0000
27.0000 816.0000 1.0000
27.0100 784.0000 1.0000
27.0200 803.0000 1.0000
27.0300 793.0000 1.0000
27.0400 809.0000 1.0000
27.0500 800.0000 1.0000
27.0600 745.0000 1.0000
27.0700 806.0000 1.0000
27.0800 784.0000 1.0000
27.0900 829.0000 1.0000
27.1000 772.0000 1.0000
27.1100 800.0000 1.0000
27.1200 820.0000 1.0000
27.1300 809.0000 1.0000
27.1400 802.0000 1.0000
27.1500 733.0000 1.0000
27.1600 790.0000 1.0000
27.1700 799.0000 1.0000
27.1800 803.0000 1.0000
27.1900 748.0000 1.0000
27.2000 742.0000 1.0000
27.2100 737.0000 1.0000
27.2200 784.0000 1.0000
27.2300 758.0000 1.0000
27.2400 741.0000 1.0000
27.2500 775.0000 1.0000
27.2600 801.0000 1.0000
27.2700 738.0000 1.0000
27.2800 757.0000 1.0000
27.2900 760.0000 1.0000
27.3000 766.0000 1.0000
27.3100 762.0000 1.0000
27.3200 773.0000 1.0000
27.3300 768.0000 1.0000
27.3400 796.0000 1.0000
27.3500 751.0000 1.0000
27.3600 742.0000 1.0000
27.3700 771.0000 1.0000
27.3800 781.0000 1.0000
27.3900 751.0000 1.0000
27.4000 776.0000 1.0000
27.4100 741.0000 1.0000
27.4200 696.0000 1.0000
27.4300 740.0000 1.0000
27.4400 774.0000 1.0000
27.4500 772.0000 1.0000
27.4600 786.0000 1.0000
27.4700 709.0000 1.0000
27.4800 782.0000 1.0000
27.4900 724.0000 1.0000
27.5000 761.0000 1.0000
27.5100 789.0000 1.0000
27.5200 743.0000 1.0000
27.5300 745.0000 1.0000
27.5400 710.0000 1.0000
27.5500 701.0000 1.0000
27.5600 770.0000 1.0000
27.5700 745.0000 1.0000
27.5800 780.0000 1.0000
27.5900 746.0000 1.0000
27.6000 713.0000 1.0000
27.6100 734.0000 1.0000
27.6200 740.0000 1.0000
27.6300 703.0000 1.0000
27.6400 721.0000 1.0000
27.6500 674.0000 1.0000
27.6600 730.0000 1.0000
27.6700 774.0000 1.0000
27.6800 739.0000 1.0000
27.6900 740.0000 1.0000
27.7000 749.0000 1.0000
27.7100 735.0000 1.0000
27.7200 730.0000 1.0000
27.7300 724.0000 1.0000
27.7400 690.0000 1.0000
27.7500 731.0000 1.0000
27.7600 770.0000 1.0000
27.7700 740.0000 1.0000
27.7800 688.0000 1.0000
27.7900 752.0000 1.0000
27.8000 684.0000 1.0000
27.8100 715.0000 1.0000
27.8200 714.0000 1.0000
27.8300 725.0000 1.0000
27.8400 732.0000 1.0000
27.8500 746.0000 1.0000
27.8600 756.0000 1.0000
27.8700 742.0000 1.0000
27.8800 706.0000 1.0000
27.8900 697.0000 1.0000
27.9000 711.0000 1.0000
27.9100 668.0000 1.0000
27.9200 717.0000 1.0000
27.9300 673.0000 1.0000
27.9400 733.0000 1.0000
27.9500 730.0000 1.0000
27.9600 747.0000 1.0000
27.9700 751.0000 1.0000
27.9800 710.0000 1.0000
27.9900 707.0000 1.0000
28.0000 735.0000 1.0000
28.0100 697.0000 1.0000
28.0200 660.0000 1.0000
28.0300 740.0000 1.0000
28.0400 748.0000 1.0000
28.0500 751.0000 1.0000
28.0600 724.0000 1.0000
28.0700 704.0000 1.0000
28.0800 696.0000 1.0000
28.0900 764.0000 1.0000
28.1000 734.0000 1.0000
28.1100 708.0000 1.0000
28.1200 730.0000 1.0000
28.1300 734.0000 1.0000
28.1400 762.0000 1.0000
28.1500 740.0000 1.0000
28.1600 787.0000 1.0000
28.1700 728.0000 1.0000
28.1800 715.0000 1.0000
28.1900 707.0000 1.0000
28.2000 744.0000 1.0000
28.2100 723.0000 1.0000
28.2200 708.0000 1.0000
28.2300 731.0000 1.0000
28.2400 716.0000 1.0000
28.2500 739.0000 1.0000
28.2600 759.0000 1.0000
28.2700 713.0000 1.0000
28.2800 731.0000 1.0000
28.2900 715.0000 1.0000
28.3000 662.0000 1.0000
28.3100 704.0000 1.0000
28.3200 716.0000 1.0000
28.3300 706.0000 1.0000
28.3400 739.0000 1.0000
28.3500 770.0000 1.0000
28.3600 682.0000 1.0000
28.3700 713.0000 1.0000
28.3800 752.0000 1.0000
28.3900 697.0000 1.0000
28.4000 725.0000 1.0000
28.4100 710.0000 1.0000
28.4200 707.0000 1.0000
28.4300 744.0000 1.0000
28.4400 733.0000 1.0000
28.4500 725.0000 1.0000
28.4600 737.0000 1.0000
28.4700 706.0000 1.0000
28.4800 691.0000 1.0000
28.4900 655.0000 1.0000
28.5000 704.0000 1.0000
28.5100 703.0000 1.0000
28.5200 716.0000 1.0000
28.5300 676.0000 1.0000
28.5400 709.0000 1.0000
28.5500 696.0000 1.0000
28.5600 742.0000 1.0000
28.5700 711.0000 1.0000
28.5800 653.0000 1.0000
28.5900 661.0000 1.0000
28.6000 715.0000 1.0000
28.6100 721.0000 1.0000
28.6200 676.0000 1.0000
28.6300 706.0000 1.0000
28.6400 761.0000 1.0000
28.6500 716.0000 1.0000
28.6600 748.0000 1.0000
28.6700 708.0000 1.0000
28.6800 711.0000 1.0000
28.6900 717.0000 1.0000
28.7000 685.0000 1.0000
28.7100 702.0000 1.0000
28.7200 702.0000 1.0000
28.7300 709.0000 1.0000
28.7400 671.0000 1.0000
28.7500 717.0000 1.0000
28.7600 673.0000 1.0000
28.7700 699.0000 1.0000
28.7800 714.0000 1.0000
28.7900 692.0000 1.0000
28.8000 711.0000 1.0000
28.8100 715.0000 1.0000
28.8200 686.0000 1.0000
28.8300 714.0000 1.0000
28.8400 684.0000 1.0000
28.8500 721.0000 1.0000
28.8600 733.0000 1.0000
28.8700 694.0000 1.0000
28.8800 678.0000 1.0000
28.8900 672.0000 1.0000
28.9000 689.0000 1.0000
28.9100 656.0000 1.0000
28.9200 666.0000 1.0000
28.9300 672.0000 1.0000
28.9400 693.0000 1.0000
28.9500 708.0000 1.0000
28.9600 719.0000 1.0000
28.9700 686.0000 1.0000
28.9800 705.0000 1.0000
28.9900 687.0000 1.0000
29.0000 670.0000 1.0000
29.0100 685.0000 1.0000
29.0200 733.0000 1.0000
29.0300 744.0000 1.0000
29.0400 721.0000 1.0000
29.0500 716.0000 1.0000
29.0600 696.0000 1.0000
29.0700 695.0000 1.0000
29.0800 671.0000 1.0000
29.0900 687.0000 1.0000
29.1000 658.0000 1.0000
29.1100 678.0000 1.0000
29.1200 671.0000 1.0000
29.1300 698.0000 1.0000
29.1400 698.0000 1.0000
29.1500 707.0000 1.0000
29.1600 673.0000 1.0000
29.1700 713.0000 1.0000
29.1800 693.0000 1.0000
29.1900 743.0000 1.0000
29.2000 723.0000 1.0000
29.2100 667.0000 1.0000
29.2200 693.0000 1.0000
29.2300 678.0000 1.0000
29.2400 683.0000 1.0000
29.2500 682.0000 1.0000
29.2600 694.0000 1.0000
29.2700 657.0000 1.0000
29.2800 687.0000 1.0000
29.2900 704.0000 1.0000
29.3000 698.0000 1.0000
29.3100 689.0000 1.0000
29.3200 685.0000 1.0000
29.3300 710.0000 1.0000
29.3400 689.0000 1.0000
29.3500 671.0000 1.0000
29.3600 655.0000 1.0000
29.3700 673.0000 1.0000
29.3800 642.0000 1.0000
29.3900 664.0000 1.0000
29.4000 705.0000 1.0000
29.4100 693.0000 1.0000
29.4200 622.0000 1.0000
29.4300 675.0000 1.0000
29.4400 702.0000 1.0000
29.4500 654.0000 1.0000
29.4600 681.0000 1.0000
29.4700 648.0000 1.0000
29.4800 661.0000 1.0000
29.4900 691.0000 1.0000
29.5000 643.0000 1.0000
29.5100 655.0000 1.0000
29.5200 674.0000 1.0000
29.5300 695.0000 1.0000
29.5400 660.0000 1.0000
29.5500 686.0000 1.0000
29.5600 712.0000 1.0000
29.5700 669.0000 1.0000
29.5800 662.0000 1.0000
29.5900 683.0000 1.0000
29.6000 711.0000 1.0000
29.6100 705.0000 1.0000
29.6200 694.0000 1.0000
29.6300 680.0000 1.0000
29.6400 659.0000 1.0000
29.6500 666.0000 1.0000
29.6600 666.0000 1.0000
29.6700 706.0000 1.0000
29.6800 678.0000 1.0000
29.6900 674.0000 1.0000
29.7000 667.0000 1.0000
29.7100 633.0000 1.0000
29.7200 670.0000 1.0000
29.7300 665.0000 1.0000
29.7400 653.0000 1.0000
29.7500 670.0000 1.0000
29.7600 683.0000 1.0000
29.7700 681.0000 1.0000
29.7800 667.0000 1.0000
29.7900 714.0000 1.0000
29.8000 645.0000 1.0000
29.8100 679.0000 1.0000
29.8200 719.0000 1.0000
29.8300 651.0000 1.0000
29.8400 669.0000 1.0000
29.8500 673.0000 1.0000
29.8600 682.0000 1.0000
29.8700 642.0000 1.0000
29.8800 650.0000 1.0000
29.8900 686.0000 1.0000
29.9000 693.0000 1.0000
29.9100 675.0000 1.0000
29.9200 646.0000 1.0000
29.9300 660.0000 1.0000
29.9400 649.0000 1.0000
29.9500 703.0000 1.0000
29.9600 677.0000 1.0000
29.9700 667.0000 1.0000
29.9800 637.0000 1.0000
29.9900 630.0000 1.0000
30.0000 657.0000 1.0000
30.0100 672.0000 1.0000
30.0200 677.0000 1.0000
30.0300 657.0000 1.0000
30.0400 711.0000 1.0000
30.0500 730.0000 1.0000
30.0600 628.0000 1.0000
30.0700 694.0000 1.0000
30.0800 682.0000 1.0000
30.0900 654.0000 1.0000
30.1000 644.0000 1.0000
30.1100 625.0000 1.0000
30.1200 619.0000 1.0000
30.1300 676.0000 1.0000
30.1400 665.0000 1.0000
30.1500 668.0000 1.0000
30.1600 596.0000 1.0000
30.1700 679.0000 1.0000
30.1800 648.0000 1.0000
30.1900 665.0000 1.0000
30.2000 632.0000 1.0000
30.2100 695.0000 1.0000
30.2200 679.0000 1.0000
30.2300 644.0000 1.0000
30.2400 667.0000 1.0000
30.2500 662.0000 1.0000
30.2600 676.0000 1.0000
30.2700 669.0000 1.0000
30.2800 701.0000 1.0000
30.2900 628.0000 1.0000
30.3000 684.0000 1.0000
30.3100 647.0000 1.0000
30.3200 668.0000 1.0000
30.3300 691.0000 1.0000
30.3400 682.0000 1.0000
30.3500 648.0000 1.0000
30.3600 683.0000 1.0000
30.3700 695.0000 1.0000
30.3800 683.0000 1.0000
30.3900 657.0000 1.0000
30.4000 643.0000 1.0000
30.4100 636.0000 1.0000
30.4200 665.0000 1.0000
30.4300 690.0000 1.0000
30.4400 633.0000 1.0000
30.4500 650.0000 1.0000
30.4600 688.0000 1.0000
30.4700 651.0000 1.0000
30.4800 618.0000 1.0000
30.4900 625.0000 1.0000
30.5000 666.0000 1.0000
30.5100 632.0000 1.0000
30.5200 630.0000 1.0000
30.5300 664.0000 1.0000
30.5400 626.0000 1.0000
30.5500 649.0000 1.0000
30.5600 664.0000 1.0000
30.5700 641.0000 1.0000
30.5800 651.0000 1.0000
30.5900 626.0000 1.0000
30.6000 633.0000 1.0000
30.6100 682.0000 1.0000
30.6200 676.0000 1.0000
30.6300 637.0000 1.0000
30.6400 652.0000 1.0000
30.6500 701.0000 1.0000
30.6600 680.0000 1.0000
30.6700 665.0000 1.0000
30.6800 627.0000 1.0000
30.6900 657.0000 1.0000
30.7000 608.0000 1.0000
30.7100 645.0000 1.0000
30.7200 690.0000 1.0000
30.7300 709.0000 1.0000
30.7400 629.0000 1.0000
30.7500 670.0000 1.0000
30.7600 653.0000 1.0000
30.7700 644.0000 1.0000
30.7800 631.0000 1.0000
30.7900 646.0000 1.0000
30.8000 648.0000 1.0000
30.8100 652.0000 1.0000
30.8200 689.0000 1.0000
30.8300 669.0000 1.0000
30.8400 654.0000 1.0000
30.8500 646.0000 1.0000
30.8600 647.0000 1.0000
30.8700 626.0000 1.0000
30.8800 653.0000 1.0000
30.8900 608.0000 1.0000
30.9000 656.0000 1.0000
30.9100 631.0000 1.0000
30.9200 634.0000 1.0000
30.9300 621.0000 1.0000
30.9400 649.0000 1.0000
30.9500 641.0000 1.0000
30.9600 632.0000 1.0000
30.9700 669.0000 1.0000
30.9800 642.0000 1.0000
30.9900 642.0000 1.0000
31.0000 691.0000 1.0000
31.0100 616.0000 1.0000
31.0200 621.0000 1.0000
31.0300 720.0000 1.0000
31.0400 641.0000 1.0000
31.0500 643.0000 1.0000
31.0600 629.0000 1.0000
31.0700 675.0000 1.0000
31.0800 652.0000 1.0000
31.0900 682.0000 1.0000
31.1000 660.0000 1.0000
31.1100 633.0000 1.0000
31.1200 659.0000 1.0000
31.1300 691.0000 1.0000
31.1400 682.0000 1.0000
31.1500 682.0000 1.0000
31.1600 677.0000 1.0000
31.1700 695.0000 1.0000
31.1800 657.0000 1.0000
31.1900 704.0000 1.0000
31.2000 683.0000 1.0000
31.2100 664.0000 1.0000
31.2200 644.0000 1.0000
31.2300 654.0000 1.0000
31.2400 692.0000 1.0000
31.2500 727.0000 1.0000
31.2600 675.0000 1.0000
31.2700 638.0000 1.0000
31.2800 666.0000 1.0000
31.2900 640.0000 1.0000
31.3000 624.0000 1.0000
31.3100 626.0000 1.0000
31.3200 623.0000 1.0000
31.3300 676.0000 1.0000
31.3400 661.0000 1.0000
31.3500 663.0000 1.0000
31.3600 666.0000 1.0000
31.3700 627.0000 1.0000
31.3800 673.0000 1.0000
31.3900 625.0000 1.0000
31.4000 621.0000 1.0000
31.4100 626.0000 1.0000
31.4200 660.0000 1.0000
31.4300 628.0000 1.0000
31.4400 679.0000 1.0000
31.4500 631.0000 1.0000
31.4600 620.0000 1.0000
31.4700 635.0000 1.0000
31.4800 643.0000 1.0000
31.4900 667.0000 1.0000
31.5000 640.0000 1.0000
31.5100 649.0000 1.0000
31.5200 669.0000 1.0000
31.5300 635.0000 1.0000
31.5400 659.0000 1.0000
31.5500 678.0000 1.0000
31.5600 709.0000 1.0000
31.5700 665.0000 1.0000
31.5800 655.0000 1.0000
31.5900 714.0000 1.0000
31.6000 656.0000 1.0000
31.6100 703.0000 1.0000
31.6200 650.0000 1.0000
31.6300 661.0000 1.0000
31.6400 687.0000 1.0000
31.6500 675.0000 1.0000
31.6600 682.0000 1.0000
31.6700 664.0000 1.0000
31.6800 652.0000 1.0000
31.6900 658.0000 1.0000
31.7000 638.0000 1.0000
31.7100 608.0000 1.0000
31.7200 633.0000 1.0000
31.7300 633.0000 1.0000
31.7400 636.0000 1.0000
31.7500 613.0000 1.0000
31.7600 639.0000 1.0000
31.7700 649.0000 1.0000
31.7800 638.0000 1.0000
31.7900 652.0000 1.0000
31.8000 618.0000 1.0000
31.8100 656.0000 1.0000
31.8200 647.0000 1.0000
31.8300 643.0000 1.0000
31.8400 630.0000 1.0000
31.8500 614.0000 1.0000
31.8600 587.0000 1.0000
31.8700 619.0000 1.0000
31.8800 641.0000 1.0000
31.8900 629.0000 1.0000
31.9000 633.0000 1.0000
31.9100 584.0000 1.0000
31.9200 620.0000 1.0000
31.9300 629.0000 1.0000
31.9400 632.0000 1.0000
31.9500 601.0000 1.0000
31.9600 604.0000 1.0000
31.9700 635.0000 1.0000
31.9800 631.0000 1.0000
31.9900 593.0000 1.0000
32.0000 602.0000 1.0000
32.0100 606.0000 1.0000
32.0200 611.0000 1.0000
32.0300 626.0000 1.0000
32.0400 602.0000 1.0000
32.0500 637.0000 1.0000
32.0600 612.0000 1.0000
32.0700 614.0000 1.0000
32.0800 597.0000 1.0000
32.0900 620.0000 1.0000
32.1000 596.0000 1.0000
32.1100 595.0000 1.0000
32.1200 634.0000 1.0000
32.1300 616.0000 1.0000
32.1400 603.0000 1.0000
32.1500 615.0000 1.0000
32.1600 576.0000 1.0000
32.1700 595.0000 1.0000
32.1800 594.0000 1.0000
32.1900 638.0000 1.0000
32.2000 633.0000 1.0000
32.2100 642.0000 1.0000
32.2200 599.0000 1.0000
32.2300 652.0000 1.0000
32.2400 624.0000 1.0000
32.2500 609.0000 1.0000
32.2600 624.0000 1.0000
32.2700 639.0000 1.0000
32.2800 613.0000 1.0000
32.2900 595.0000 1.0000
32.3000 607.0000 1.0000
32.3100 683.0000 1.0000
32.3200 606.0000 1.0000
32.3300 615.0000 1.0000
32.3400 625.0000 1.0000
32.3500 593.0000 1.0000
32.3600 603.0000 1.0000
32.3700 654.0000 1.0000
32.3800 583.0000 1.0000
32.3900 580.0000 1.0000
32.4000 611.0000 1.0000
32.4100 590.0000 1.0000
32.4200 634.0000 1.0000
32.4300 631.0000 1.0000
32.4400 599.0000 1.0000
32.4500 610.0000 1.0000
32.4600 640.0000 1.0000
32.4700 629.0000 1.0000
32.4800 650.0000 1.0000
32.4900 599.0000 1.0000
32.5000 590.0000 1.0000
32.5100 618.0000 1.0000
32.5200 603.0000 1.0000
32.5300 575.0000 1.0000
32.5400 607.0000 1.0000
32.5500 589.0000 1.0000
32.5600 592.0000 1.0000
32.5700 601.0000 1.0000
32.5800 617.0000 1.0000
32.5900 622.0000 1.0000
32.6000 670.0000 1.0000
32.6100 637.0000 1.0000
32.6200 619.0000 1.0000
32.6300 641.0000 1.0000
32.6400 628.0000 1.0000
32.6500 585.0000 1.0000
32.6600 619.0000 1.0000
32.6700 647.0000 1.0000
32.6800 612.0000 1.0000
32.6900 628.0000 1.0000
32.7000 625.0000 1.0000
32.7100 600.0000 1.0000
32.7200 616.0000 1.0000
32.7300 625.0000 1.0000
32.7400 577.0000 1.0000
32.7500 614.0000 1.0000
32.7600 592.0000 1.0000
32.7700 616.0000 1.0000
32.7800 607.0000 1.0000
32.7900 603.0000 1.0000
32.8000 614.0000 1.0000
32.8100 601.0000 1.0000
32.8200 626.0000 1.0000
32.8300 613.0000 1.0000
32.8400 601.0000 1.0000
32.8500 604.0000 1.0000
32.8600 620.0000 1.0000
32.8700 638.0000 1.0000
32.8800 617.0000 1.0000
32.8900 637.0000 1.0000
32.9000 674.0000 1.0000
32.9100 648.0000 1.0000
32.9200 619.0000 1.0000
32.9300 635.0000 1.0000
32.9400 628.0000 1.0000
32.9500 676.0000 1.0000
32.9600 651.0000 1.0000
32.9700 676.0000 1.0000
32.9800 664.0000 1.0000
32.9900 711.0000 1.0000
33.0000 700.0000 1.0000
33.0100 750.0000 1.0000
33.0200 707.0000 1.0000
33.0300 753.0000 1.0000
33.0400 770.0000 1.0000
33.0500 780.0000 1.0000
33.0600 780.0000 1.0000
33.0700 798.0000 1.0000
33.0800 822.0000 1.0000
33.0900 849.0000 1.0000
33.1000 835.0000 1.0000
33.1100 795.0000 1.0000
33.1200 836.0000 1.0000
33.1300 822.0000 1.0000
33.1400 793.0000 1.0000
33.1500 813.0000 1.0000
33.1600 790.0000 1.0000
33.1700 802.0000 1.0000
33.1800 803.0000 1.0000
33.1900 753.0000 1.0000
33.2000 761.0000 1.0000
33.2100 733.0000 1.0000
33.2200 761.0000 1.0000
33.2300 718.0000 1.0000
33.2400 716.0000 1.0000
33.2500 689.0000 1.0000
33.2600 683.0000 1.0000
33.2700 700.0000 1.0000
33.2800 670.0000 1.0000
33.2900 674.0000 1.0000
33.3000 691.0000 1.0000
33.3100 676.0000 1.0000
33.3200 690.0000 1.0000
33.3300 648.0000 1.0000
33.3400 669.0000 1.0000
33.3500 730.0000 1.0000
33.3600 726.0000 1.0000
33.3700 668.0000 1.0000
33.3800 715.0000 1.0000
33.3900 733.0000 1.0000
33.4000 690.0000 1.0000
33.4100 675.0000 1.0000
33.4200 738.0000 1.0000
33.4300 736.0000 1.0000
33.4400 711.0000 1.0000
33.4500 769.0000 1.0000
33.4600 805.0000 1.0000
33.4700 793.0000 1.0000
33.4800 815.0000 1.0000
33.4900 858.0000 1.0000
33.5000 880.0000 1.0000
33.5100 887.0000 1.0000
33.5200 903.0000 1.0000
33.5300 922.0000 1.0000
33.5400 991.0000 1.0000
33.5500 1050.0000 1.0000
33.5600 1025.0000 1.0000
33.5700 1166.0000 1.0000
33.5800 1159.0000 1.0000
33.5900 1242.0000 1.0000
33.6000 1307.0000 1.0000
33.6100 1334.0000 1.0000
33.6200 1362.0000 1.0000
33.6300 1391.0000 1.0000
33.6400 1410.0000 1.0000
33.6500 1461.0000 1.0000
33.6600 1527.0000 1.0000
33.6700 1396.0000 1.0000
33.6800 1404.0000 1.0000
33.6900 1363.0000 1.0000
33.7000 1344.0000 1.0000
33.7100 1344.0000 1.0000
33.7200 1342.0000 1.0000
33.7300 1223.0000 1.0000
33.7400 1219.0000 1.0000
33.7500 1129.0000 1.0000
33.7600 1112.0000 1.0000
33.7700 1077.0000 1.0000
33.7800 1020.0000 1.0000
33.7900 1019.0000 1.0000
33.8000 937.0000 1.0000
33.8100 923.0000 1.0000
33.8200 904.0000 1.0000
33.8300 837.0000 1.0000
33.8400 779.0000 1.0000
33.8500 838.0000 1.0000
33.8600 798.0000 1.0000
33.8700 822.0000 1.0000
33.8800 746.0000 1.0000
33.8900 734.0000 1.0000
33.9000 743.0000 1.0000
33.9100 698.0000 1.0000
33.9200 725.0000 1.0000
33.9300 670.0000 1.0000
33.9400 703.0000 1.0000
33.9500 696.0000 1.0000
33.9600 714.0000 1.0000
33.9700 650.0000 1.0000
33.9800 678.0000 1.0000
33.9900 659.0000 1.0000
34.0000 670.0000 1.0000
34.0100 656.0000 1.0000
34.0200 696.0000 1.0000
34.0300 674.0000 1.0000
34.0400 654.0000 1.0000
34.0500 642.0000 1.0000
34.0600 683.0000 1.0000
34.0700 629.0000 1.0000
34.0800 612.0000 1.0000
34.0900 619.0000 1.0000
34.1000 596.0000 1.0000
34.1100 633.0000 1.0000
34.1200 597.0000 1.0000
34.1300 619.0000 1.0000
34.1400 564.0000 1.0000
34.1500 583.0000 1.0000
34.1600 574.0000 1.0000
34.1700 591.0000 1.0000
34.1800 613.0000 1.0000
34.1900 596.0000 1.0000
34.2000 570.0000 1.0000
34.2100 558.0000 1.0000
34.2200 568.0000 1.0000
34.2300 584.0000 1.0000
34.2400 587.0000 1.0000
34.2500 598.0000 1.0000
34.2600 565.0000 1.0000
34.2700 600.0000 1.0000
34.2800 587.0000 1.0000
34.2900 602.0000 1.0000
34.3000 592.0000 1.0000
34.3100 562.0000 1.0000
34.3200 577.0000 1.0000
34.3300 586.0000 1.0000
34.3400 612.0000 1.0000
34.3500 570.0000 1.0000
34.3600 565.0000 1.0000
34.3700 552.0000 1.0000
34.3800 589.0000 1.0000
34.3900 575.0000 1.0000
34.4000 602.0000 1.0000
34.4100 555.0000 1.0000
34.4200 621.0000 1.0000
34.4300 540.0000 1.0000
34.4400 593.0000 1.0000
34.4500 588.0000 1.0000
34.4600 594.0000 1.0000
34.4700 547.0000 1.0000
34.4800 535.0000 1.0000
34.4900 543.0000 1.0000
34.5000 590.0000 1.0000
34.5100 539.0000 1.0000
34.5200 567.0000 1.0000
34.5300 558.0000 1.0000
34.5400 535.0000 1.0000
34.5500 527.0000 1.0000
34.5600 601.0000 1.0000
34.5700 571.0000 1.0000
34.5800 549.0000 1.0000
34.5900 566.0000 1.0000
34.6000 594.0000 1.0000
34.6100 567.0000 1.0000
34.6200 551.0000 1.0000
34.6300 562.0000 1.0000
34.6400 555.0000 1.0000
34.6500 555.0000 1.0000
34.6600 526.0000 1.0000
34.6700 545.0000 1.0000
34.6800 534.0000 1.0000
34.6900 567.0000 1.0000
34.7000 523.0000 1.0000
34.7100 513.0000 1.0000
34.7200 539.0000 1.0000
34.7300 543.0000 1.0000
34.7400 573.0000 1.0000
34.7500 552.0000 1.0000
34.7600 552.0000 1.0000
34.7700 560.0000 1.0000
34.7800 507.0000 1.0000
34.7900 556.0000 1.0000
34.8000 556.0000 1.0000
34.8100 523.0000 1.0000
34.8200 549.0000 1.0000
34.8300 537.0000 1.0000
34.8400 566.0000 1.0000
34.8500 536.0000 1.0000
34.8600 537.0000 1.0000
34.8700 545.0000 1.0000
34.8800 511.0000 1.0000
34.8900 535.0000 1.0000
34.9000 517.0000 1.0000
34.9100 530.0000 1.0000
34.9200 568.0000 1.0000
34.9300 596.0000 1.0000
34.9400 531.0000 1.0000
34.9500 511.0000 1.0000
34.9600 501.0000 1.0000
34.9700 521.0000 1.0000
34.9800 547.0000 1.0000
34.9900 559.0000 1.0000
35.0000 584.0000 1.0000
35.0100 518.0000 1.0000
35.0200 511.0000 1.0000
35.0300 538.0000 1.0000
35.0400 538.0000 1.0000
35.0500 600.0000 1.0000
35.0600 588.0000 1.0000
35.0700 533.0000 1.0000
35.0800 552.0000 1.0000
35.0900 539.0000 1.0000
35.1000 542.0000 1.0000
35.1100 542.0000 1.0000
35.1200 531.0000 1.0000
35.1300 514.0000 1.0000
35.1400 511.0000 1.0000
35.1500 568.0000 1.0000
35.1600 537.0000 1.0000
35.1700 551.0000 1.0000
35.1800 537.0000 1.0000
35.1900 539.0000 1.0000
35.2000 557.0000 1.0000
35.2100 573.0000 1.0000
35.2200 549.0000 1.0000
35.2300 559.0000 1.0000
35.2400 537.0000 1.0000
35.2500 567.0000 1.0000
35.2600 571.0000 1.0000
35.2700 583.0000 1.0000
35.2800 579.0000 1.0000
35.2900 568.0000 1.0000
35.3000 574.0000 1.0000
35.3100 555.0000 1.0000
35.3200 522.0000 1.0000
35.3300 557.0000 1.0000
35.3400 559.0000 1.0000
35.3500 573.0000 1.0000
35.3600 585.0000 1.0000
35.3700 602.0000 1.0000
35.3800 595.0000 1.0000
35.3900 624.0000 1.0000
35.4000 643.0000 1.0000
35.4100 628.0000 1.0000
35.4200 677.0000 1.0000
35.4300 670.0000 1.0000
35.4400 730.0000 1.0000
35.4500 777.0000 1.0000
35.4600 756.0000 1.0000
35.4700 756.0000 1.0000
35.4800 859.0000 1.0000
35.4900 905.0000 1.0000
35.5000 960.0000 1.0000
35.5100 995.0000 1.0000
35.5200 1001.0000 1.0000
35.5300 1137.0000 1.0000
35.5400 1165.0000 1.0000
35.5500 1212.0000 1.0000
35.5600 1248.0000 1.0000
35.5700 1234.0000 1.0000
35.5800 1285.0000 1.0000
35.5900 1214.0000 1.0000
35.6000 1241.0000 1.0000
35.6100 1226.0000 1.0000
35.6200 1192.0000 1.0000
35.6300 1156.0000 1.0000
35.6400 1116.0000 1.0000
35.6500 1061.0000 1.0000
35.6600 1020.0000 1.0000
35.6700 972.0000 1.0000
35.6800 905.0000 1.0000
35.6900 832.0000 1.0000
35.7000 807.0000 1.0000
35.7100 748.0000 1.0000
35.7200 755.0000 1.0000
35.7300 739.0000 1.0000
35.7400 675.0000 1.0000
35.7500 698.0000 1.0000
35.7600 651.0000 1.0000
35.7700 644.0000 1.0000
35.7800 604.0000 1.0000
35.7900 582.0000 1.0000
35.8000 555.0000 1.0000
35.8100 530.0000 1.0000
35.8200 545.0000 1.0000
35.8300 561.0000 1.0000
35.8400 501.0000 1.0000
35.8500 554.0000 1.0000
35.8600 559.0000 1.0000
35.8700 563.0000 1.0000
35.8800 537.0000 1.0000
35.8900 488.0000 1.0000
35.9000 566.0000 1.0000
35.9100 521.0000 1.0000
35.9200 533.0000 1.0000
35.9300 499.0000 1.0000
35.9400 512.0000 1.0000
35.9500 524.0000 1.0000
35.9600 512.0000 1.0000
35.9700 507.0000 1.0000
35.9800 550.0000 1.0000
35.9900 507.0000 1.0000
36.0000 534.0000 1.0000
36.0100 524.0000 1.0000
36.0200 485.0000 1.0000
36.0300 509.0000 1.0000
36.0400 486.0000 1.0000
36.0500 478.0000 1.0000
36.0600 495.0000 1.0000
36.0700 476.0000 1.0000
36.0800 505.0000 1.0000
36.0900 487.0000 1.0000
36.1000 458.0000 1.0000
36.1100 514.0000 1.0000
36.1200 509.0000 1.0000
36.1300 519.0000 1.0000
36.1400 486.0000 1.0000
36.1500 518.0000 1.0000
36.1600 492.0000 1.0000
36.1700 508.0000 1.0000
36.1800 491.0000 1.0000
36.1900 488.0000 1.0000
36.2000 496.0000 1.0000
36.2100 502.0000 1.0000
36.2200 516.0000 1.0000
36.2300 500.0000 1.0000
36.2400 523.0000 1.0000
36.2500 487.0000 1.0000
36.2600 509.0000 1.0000
36.2700 503.0000 1.0000
36.2800 527.0000 1.0000
36.2900 493.0000 1.0000
36.3000 499.0000 1.0000
36.3100 495.0000 1.0000
36.3200 496.0000 1.0000
36.3300 530.0000 1.0000
36.3400 512.0000 1.0000
36.3500 505.0000 1.0000
36.3600 479.0000 1.0000
36.3700 517.0000 1.0000
36.3800 502.0000 1.0000
36.3900 503.0000 1.0000
36.4000 497.0000 1.0000
36.4100 473.0000 1.0000
36.4200 489.0000 1.0000
36.4300 476.0000 1.0000
36.4400 499.0000 1.0000
36.4500 492.0000 1.0000
36.4600 491.0000 1.0000
36.4700 500.0000 1.0000
36.4800 488.0000 1.0000
36.4900 483.0000 1.0000
36.5000 493.0000 1.0000
36.5100 510.0000 1.0000
36.5200 535.0000 1.0000
36.5300 501.0000 1.0000
36.5400 486.0000 1.0000
36.5500 495.0000 1.0000
36.5600 480.0000 1.0000
36.5700 498.0000 1.0000
36.5800 506.0000 1.0000
36.5900 490.0000 1.0000
36.6000 523.0000 1.0000
36.6100 497.0000 1.0000
36.6200 492.0000 1.0000
36.6300 496.0000 1.0000
36.6400 490.0000 1.0000
36.6500 532.0000 1.0000
36.6600 505.0000 1.0000
36.6700 501.0000 1.0000
36.6800 520.0000 1.0000
36.6900 524.0000 1.0000
36.7000 518.0000 1.0000
36.7100 533.0000 1.0000
36.7200 495.0000 1.0000
36.7300 463.0000 1.0000
36.7400 484.0000 1.0000
36.7500 475.0000 1.0000
36.7600 486.0000 1.0000
36.7700 484.0000 1.0000
36.7800 517.0000 1.0000
36.7900 533.0000 1.0000
36.8000 502.0000 1.0000
36.8100 489.0000 1.0000
36.8200 502.0000 1.0000
36.8300 498.0000 1.0000
36.8400 483.0000 1.0000
36.8500 487.0000 1.0000
36.8600 493.0000 1.0000
36.8700 481.0000 1.0000
36.8800 500.0000 1.0000
36.8900 484.0000 1.0000
36.9000 482.0000 1.0000
36.9100 490.0000 1.0000
36.9200 509.0000 1.0000
36.9300 487.0000 1.0000
36.9400 468.0000 1.0000
36.9500 497.0000 1.0000
36.9600 472.0000 1.0000
36.9700 481.0000 1.0000
36.9800 474.0000 1.0000
36.9900 464.0000 1.0000
37.0000 484.0000 1.0000
37.0100 509.0000 1.0000
37.0200 477.0000 1.0000
37.0300 475.0000 1.0000
37.0400 485.0000 1.0000
37.0500 494.0000 1.0000
37.0600 496.0000 1.0000
37.0700 462.0000 1.0000
37.0800 491.0000 1.0000
37.0900 482.0000 1.0000
37.1000 477.0000 1.0000
37.1100 507.0000 1.0000
37.1200 518.0000 1.0000
37.1300 512.0000 1.0000
37.1400 503.0000 1.0000
37.1500 464.0000 1.0000
37.1600 471.0000 1.0000
37.1700 511.0000 1.0000
37.1800 562.0000 1.0000
37.1900 533.0000 1.0000
37.2000 496.0000 1.0000
37.2100 487.0000 1.0000
37.2200 534.0000 1.0000
37.2300 505.0000 1.0000
37.2400 523.0000 1.0000
37.2500 503.0000 1.0000
37.2600 508.0000 1.0000
37.2700 544.0000 1.0000
37.2800 531.0000 1.0000
37.2900 536.0000 1.0000
37.3000 517.0000 1.0000
37.3100 544.0000 1.0000
37.3200 560.0000 1.0000
37.3300 581.0000 1.0000
37.3400 569.0000 1.0000
37.3500 580.0000 1.0000
37.3600 580.0000 1.0000
37.3700 555.0000 1.0000
37.3800 585.0000 1.0000
37.3900 643.0000 1.0000
37.4000 634.0000 1.0000
37.4100 596.0000 1.0000
37.4200 637.0000 1.0000
37.4300 682.0000 1.0000
37.4400 734.0000 1.0000
37.4500 732.0000 1.0000
37.4600 717.0000 1.0000
37.4700 692.0000 1.0000
37.4800 776.0000 1.0000
37.4900 809.0000 1.0000
37.5000 835.0000 1.0000
37.5100 825.0000 1.0000
37.5200 842.0000 1.0000
37.5300 906.0000 1.0000
37.5400 981.0000 1.0000
37.5500 1044.0000 1.0000
37.5600 1088.0000 1.0000
37.5700 1143.0000 1.0000
37.5800 1222.0000 1.0000
37.5900 1263.0000 1.0000
37.6000 1317.0000 1.0000
37.6100 1494.0000 1.0000
37.6200 1564.0000 1.0000
37.6300 1625.0000 1.0000
37.6400 1744.0000 1.0000
37.6500 1850.0000 1.0000
37.6600 1909.0000 1.0000
37.6700 1937.0000 1.0000
37.6800 1976.0000 1.0000
37.6900 2009.0000 1.0000
37.7000 2133.0000 1.0000
37.7100 2055.0000 1.0000
37.7200 2097.0000 1.0000
37.7300 2046.0000 1.0000
37.7400 2052.0000 1.0000
37.7500 1991.0000 1.0000
37.7600 1956.0000 1.0000
37.7700 1917.0000 1.0000
37.7800 1929.0000 1.0000
37.7900 1821.0000 1.0000
37.8000 1737.0000 1.0000
37.8100 1713.0000 1.0000
37.8200 1641.0000 1.0000
37.8300 1507.0000 1.0000
37.8400 1456.0000 1.0000
37.8500 1368.0000 1.0000
37.8600 1278.0000 1.0000
37.8700 1251.0000 1.0000
37.8800 1161.0000 1.0000
37.8900 1106.0000 1.0000
37.9000 1052.0000 1.0000
37.9100 957.0000 1.0000
37.9200 940.0000 1.0000
37.9300 865.0000 1.0000
37.9400 830.0000 1.0000
37.9500 804.0000 1.0000
37.9600 835.0000 1.0000
37.9700 770.0000 1.0000
37.9800 777.0000 1.0000
37.9900 687.0000 1.0000
38.0000 708.0000 1.0000
38.0100 674.0000 1.0000
38.0200 662.0000 1.0000
38.0300 658.0000 1.0000
38.0400 597.0000 1.0000
38.0500 602.0000 1.0000
38.0600 591.0000 1.0000
38.0700 551.0000 1.0000
38.0800 582.0000 1.0000
38.0900 539.0000 1.0000
38.1000 493.0000 1.0000
38.1100 518.0000 1.0000
38.1200 565.0000 1.0000
38.1300 555.0000 1.0000
38.1400 527.0000 1.0000
38.1500 537.0000 1.0000
38.1600 494.0000 1.0000
38.1700 472.0000 1.0000
38.1800 485.0000 1.0000
38.1900 519.0000 1.0000
38.2000 480.0000 1.0000
38.2100 477.0000 1.0000
38.2200 479.0000 1.0000
38.2300 477.0000 1.0000
38.2400 504.0000 1.0000
38.2500 495.0000 1.0000
38.2600 510.0000 1.0000
38.2700 480.0000 1.0000
38.2800 476.0000 1.0000
38.2900 501.0000 1.0000
38.3000 499.0000 1.0000
38.3100 479.0000 1.0000
38.3200 474.0000 1.0000
38.3300 473.0000 1.0000
38.3400 456.0000 1.0000
38.3500 489.0000 1.0000
38.3600 492.0000 1.0000
38.3700 458.0000 1.0000
38.3800 509.0000 1.0000
38.3900 492.0000 1.0000
38.4000 457.0000 1.0000
38.4100 478.0000 1.0000
38.4200 459.0000 1.0000
38.4300 450.0000 1.0000
38.4400 459.0000 1.0000
38.4500 424.0000 1.0000
38.4600 459.0000 1.0000
38.4700 455.0000 1.0000
38.4800 467.0000 1.0000
38.4900 461.0000 1.0000
38.5000 474.0000 1.0000
38.5100 432.0000 1.0000
38.5200 466.0000 1.0000
38.5300 443.0000 1.0000
38.5400 397.0000 1.0000
38.5500 471.0000 1.0000
38.5600 458.0000 1.0000
38.5700 471.0000 1.0000
38.5800 467.0000 1.0000
38.5900 479.0000 1.0000
38.6000 450.0000 1.0000
38.6100 469.0000 1.0000
38.6200 465.0000 1.0000
38.6300 467.0000 1.0000
38.6400 463.0000 1.0000
38.6500 409.0000 1.0000
38.6600 495.0000 1.0000
38.6700 502.0000 1.0000
38.6800 461.0000 1.0000
38.6900 468.0000 1.0000
38.7000 461.0000 1.0000
38.7100 493.0000 1.0000
38.7200 486.0000 1.0000
38.7300 476.0000 1.0000
38.7400 451.0000 1.0000
38.7500 453.0000 1.0000
38.7600 457.0000 1.0000
38.7700 456.0000 1.0000
38.7800 483.0000 1.0000
38.7900 462.0000 1.0000
38.8000 472.0000 1.0000
38.8100 471.0000 1.0000
38.8200 469.0000 1.0000
38.8300 457.0000 1.0000
38.8400 482.0000 1.0000
38.8500 499.0000 1.0000
38.8600 475.0000 1.0000
38.8700 471.0000 1.0000
38.8800 465.0000 1.0000
38.8900 457.0000 1.0000
38.9000 487.0000 1.0000
38.9100 441.0000 1.0000
38.9200 467.0000 1.0000
38.9300 470.0000 1.0000
38.9400 502.0000 1.0000
38.9500 484.0000 1.0000
38.9600 443.0000 1.0000
38.9700 476.0000 1.0000
38.9800 502.0000 1.0000
38.9900 449.0000 1.0000
39.0000 463.0000 1.0000
39.0100 434.0000 1.0000
39.0200 480.0000 1.0000
39.0300 458.0000 1.0000
39.0400 427.0000 1.0000
39.0500 482.0000 1.0000
39.0600 433.0000 1.0000
39.0700 457.0000 1.0000
39.0800 406.0000 1.0000
39.0900 415.0000 1.0000
39.1000 415.0000 1.0000
39.1100 451.0000 1.0000
39.1200 443.0000 1.0000
39.1300 446.0000 1.0000
39.1400 463.0000 1.0000
39.1500 473.0000 1.0000
39.1600 464.0000 1.0000
39.1700 449.0000 1.0000
39.1800 457.0000 1.0000
39.1900 457.0000 1.0000
39.2000 431.0000 1.0000
39.2100 412.0000 1.0000
39.2200 456.0000 1.0000
39.2300 436.0000 1.0000
39.2400 415.0000 1.0000
39.2500 420.0000 1.0000
39.2600 431.0000 1.0000
39.2700 433.0000 1.0000
39.2800 442.0000 1.0000
39.2900 453.0000 1.0000
39.3000 438.0000 1.0000
39.3100 408.0000 1.0000
39.3200 451.0000 1.0000
39.3300 463.0000 1.0000
39.3400 415.0000 1.0000
39.3500 440.0000 1.0000
39.3600 422.0000 1.0000
39.3700 420.0000 1.0000
39.3800 424.0000 1.0000
39.3900 437.0000 1.0000
39.4000 405.0000 1.0000
39.4100 420.0000 1.0000
39.4200 422.0000 1.0000
39.4300 435.0000 1.0000
39.4400 425.0000 1.0000
39.4500 430.0000 1.0000
39.4600 417.0000 1.0000
39.4700 422.0000 1.0000
39.4800 428.0000 1.0000
39.4900 429.0000 1.0000
39.5000 388.0000 1.0000
39.5100 423.0000 1.0000
39.5200 442.0000 1.0000
39.5300 420.0000 1.0000
39.5400 409.0000 1.0000
39.5500 436.0000 1.0000
39.5600 379.0000 1.0000
39.5700 436.0000 1.0000
39.5800 450.0000 1.0000
39.5900 411.0000 1.0000
39.6000 419.0000 1.0000
39.6100 436.0000 1.0000
39.6200 444.0000 1.0000
39.6300 419.0000 1.0000
39.6400 429.0000 1.0000
39.6500 440.0000 1.0000
39.6600 415.0000 1.0000
39.6700 463.0000 1.0000
39.6800 422.0000 1.0000
39.6900 425.0000 1.0000
39.7000 427.0000 1.0000
39.7100 429.0000 1.0000
39.7200 447.0000 1.0000
39.7300 440.0000 1.0000
39.7400 422.0000 1.0000
39.7500 457.0000 1.0000
39.7600 435.0000 1.0000
39.7700 452.0000 1.0000
39.7800 439.0000 1.0000
39.7900 423.0000 1.0000
39.8000 400.0000 1.0000
39.8100 396.0000 1.0000
39.8200 418.0000 1.0000
39.8300 447.0000 1.0000
39.8400 431.0000 1.0000
39.8500 404.0000 1.0000
39.8600 415.0000 1.0000
39.8700 401.0000 1.0000
39.8800 407.0000 1.0000
39.8900 447.0000 1.0000
39.9000 431.0000 1.0000
39.9100 446.0000 1.0000
39.9200 415.0000 1.0000
39.9300 407.0000 1.0000
39.9400 446.0000 1.0000
39.9500 425.0000 1.0000
39.9600 391.0000 1.0000
39.9700 411.0000 1.0000
39.9800 413.0000 1.0000
39.9900 442.0000 1.0000
40.0000 410.0000 1.0000
40.0100 422.0000 1.0000
40.0200 430.0000 1.0000
40.0300 418.0000 1.0000
40.0400 406.0000 1.0000
40.0500 414.0000 1.0000
40.0600 411.0000 1.0000
40.0700 414.0000 1.0000
40.0800 409.0000 1.0000
40.0900 440.0000 1.0000
40.1000 448.0000 1.0000
40.1100 462.0000 1.0000
40.1200 416.0000 1.0000
40.1300 395.0000 1.0000
40.1400 412.0000 1.0000
40.1500 410.0000 1.0000
40.1600 403.0000 1.0000
40.1700 425.0000 1.0000
40.1800 406.0000 1.0000
40.1900 442.0000 1.0000
40.2000 460.0000 1.0000
40.2100 418.0000 1.0000
40.2200 423.0000 1.0000
40.2300 411.0000 1.0000
40.2400 426.0000 1.0000
40.2500 435.0000 1.0000
40.2600 387.0000 1.0000
40.2700 425.0000 1.0000
40.2800 433.0000 1.0000
40.2900 432.0000 1.0000
40.3000 416.0000 1.0000
40.3100 438.0000 1.0000
40.3200 429.0000 1.0000
40.3300 448.0000 1.0000
40.3400 441.0000 1.0000
40.3500 455.0000 1.0000
40.3600 428.0000 1.0000
40.3700 408.0000 1.0000
40.3800 408.0000 1.0000
40.3900 438.0000 1.0000
40.4000 381.0000 1.0000
40.4100 428.0000 1.0000
40.4200 445.0000 1.0000
40.4300 467.0000 1.0000
40.4400 436.0000 1.0000
40.4500 434.0000 1.0000
40.4600 424.0000 1.0000
40.4700 431.0000 1.0000
40.4800 372.0000 1.0000
40.4900 428.0000 1.0000
40.5000 455.0000 1.0000
40.5100 416.0000 1.0000
40.5200 416.0000 1.0000
40.5300 424.0000 1.0000
40.5400 428.0000 1.0000
40.5500 440.0000 1.0000
40.5600 439.0000 1.0000
40.5700 455.0000 1.0000
40.5800 431.0000 1.0000
40.5900 449.0000 1.0000
40.6000 415.0000 1.0000
40.6100 470.0000 1.0000
40.6200 432.0000 1.0000
40.6300 441.0000 1.0000
40.6400 419.0000 1.0000
40.6500 435.0000 1.0000
40.6600 461.0000 1.0000
40.6700 438.0000 1.0000
40.6800 450.0000 1.0000
40.6900 433.0000 1.0000
40.7000 436.0000 1.0000
40.7100 455.0000 1.0000
40.7200 453.0000 1.0000
40.7300 436.0000 1.0000
40.7400 474.0000 1.0000
40.7500 490.0000 1.0000
40.7600 473.0000 1.0000
40.7700 500.0000 1.0000
40.7800 513.0000 1.0000
40.7900 503.0000 1.0000
40.8000 484.0000 1.0000
40.8100 491.0000 1.0000
40.8200 502.0000 1.0000
40.8300 506.0000 1.0000
40.8400 464.0000 1.0000
40.8500 493.0000 1.0000
40.8600 455.0000 1.0000
40.8700 440.0000 1.0000
40.8800 482.0000 1.0000
40.8900 450.0000 1.0000
40.9000 450.0000 1.0000
40.9100 453.0000 1.0000
40.9200 467.0000 1.0000
40.9300 429.0000 1.0000
40.9400 437.0000 1.0000
40.9500 479.0000 1.0000
40.9600 465.0000 1.0000
40.9700 453.0000 1.0000
40.9800 433.0000 1.0000
40.9900 425.0000 1.0000
41.0000 440.0000 1.0000
41.0100 407.0000 1.0000
41.0200 398.0000 1.0000
41.0300 431.0000 1.0000
41.0400 429.0000 1.0000
41.0500 433.0000 1.0000
41.0600 395.0000 1.0000
41.0700 424.0000 1.0000
41.0800 395.0000 1.0000
41.0900 414.0000 1.0000
41.1000 407.0000 1.0000
41.1100 411.0000 1.0000
41.1200 457.0000 1.0000
41.1300 416.0000 1.0000
41.1400 408.0000 1.0000
41.1500 424.0000 1.0000
41.1600 406.0000 1.0000
41.1700 437.0000 1.0000
41.1800 405.0000 1.0000
41.1900 374.0000 1.0000
41.2000 422.0000 1.0000
41.2100 424.0000 1.0000
41.2200 392.0000 1.0000
41.2300 409.0000 1.0000
41.2400 419.0000 1.0000
41.2500 421.0000 1.0000
41.2600 418.0000 1.0000
41.2700 420.0000 1.0000
41.2800 403.0000 1.0000
41.2900 376.0000 1.0000
41.3000 430.0000 1.0000
41.3100 411.0000 1.0000
41.3200 427.0000 1.0000
41.3300 400.0000 1.0000
41.3400 409.0000 1.0000
41.3500 439.0000 1.0000
41.3600 433.0000 1.0000
41.3700 409.0000 1.0000
41.3800 406.0000 1.0000
41.3900 395.0000 1.0000
41.4000 383.0000 1.0000
41.4100 375.0000 1.0000
41.4200 404.0000 1.0000
41.4300 417.0000 1.0000
41.4400 424.0000 1.0000
41.4500 432.0000 1.0000
41.4600 410.0000 1.0000
41.4700 424.0000 1.0000
41.4800 404.0000 1.0000
41.4900 407.0000 1.0000
41.5000 426.0000 1.0000
41.5100 433.0000 1.0000
41.5200 367.0000 1.0000
41.5300 395.0000 1.0000
41.5400 392.0000 1.0000
41.5500 407.0000 1.0000
41.5600 409.0000 1.0000
41.5700 390.0000 1.0000
41.5800 434.0000 1.0000
41.5900 392.0000 1.0000
41.6000 432.0000 1.0000
41.6100 402.0000 1.0000
41.6200 401.0000 1.0000
41.6300 413.0000 1.0000
41.6400 409.0000 1.0000
41.6500 371.0000 1.0000
41.6600 384.0000 1.0000
41.6700 390.0000 1.0000
41.6800 431.0000 1.0000
41.6900 417.0000 1.0000
41.7000 381.0000 1.0000
41.7100 405.0000 1.0000
41.7200 409.0000 1.0000
41.7300 393.0000 1.0000
41.7400 409.0000 1.0000
41.7500 389.0000 1.0000
41.7600 397.0000 1.0000
41.7700 403.0000 1.0000
41.7800 442.0000 1.0000
41.7900 386.0000 1.0000
41.8000 422.0000 1.0000
41.8100 370.0000 1.0000
41.8200 380.0000 1.0000
41.8300 408.0000 1.0000
41.8400 393.0000 1.0000
41.8500 399.0000 1.0000
41.8600 413.0000 1.0000
41.8700 413.0000 1.0000
41.8800 406.0000 1.0000
41.8900 365.0000 1.0000
41.9000 414.0000 1.0000
41.9100 429.0000 1.0000
41.9200 413.0000 1.0000
41.9300 407.0000 1.0000
41.9400 428.0000 1.0000
41.9500 432.0000 1.0000
41.9600 434.0000 1.0000
41.9700 427.0000 1.0000
41.9800 403.0000 1.0000
41.9900 375.0000 1.0000
42.0000 398.0000 1.0000
42.0100 390.0000 1.0000
42.0200 405.0000 1.0000
42.0300 391.0000 1.0000
42.0400 403.0000 1.0000
42.0500 407.0000 1.0000
42.0600 402.0000 1.0000
42.0700 395.0000 1.0000
42.0800 406.0000 1.0000
42.0900 393.0000 1.0000
42.1000 399.0000 1.0000
42.1100 416.0000 1.0000
42.1200 412.0000 1.0000
42.1300 411.0000 1.0000
42.1400 372.0000 1.0000
42.1500 396.0000 1.0000
42.1600 390.0000 1.0000
42.1700 403.0000 1.0000
42.1800 378.0000 1.0000
42.1900 411.0000 1.0000
42.2000 396.0000 1.0000
42.2100 419.0000 1.0000
42.2200 443.0000 1.0000
42.2300 436.0000 1.0000
42.2400 425.0000 1.0000
42.2500 416.0000 1.0000
42.2600 410.0000 1.0000
42.2700 403.0000 1.0000
42.2800 449.0000 1.0000
42.2900 401.0000 1.0000
42.3000 395.0000 1.0000
42.3100 422.0000 1.0000
42.3200 428.0000 1.0000
42.3300 422.0000 1.0000
42.3400 445.0000 1.0000
42.3500 444.0000 1.0000
42.3600 444.0000 1.0000
42.3700 453.0000 1.0000
42.3800 427.0000 1.0000
42.3900 434.0000 1.0000
42.4000 451.0000 1.0000
42.4100 435.0000 1.0000
42.4200 397.0000 1.0000
42.4300 421.0000 1.0000
42.4400 455.0000 1.0000
42.4500 423.0000 1.0000
42.4600 413.0000 1.0000
42.4700 405.0000 1.0000
42.4800 422.0000 1.0000
42.4900 431.0000 1.0000
42.5000 406.0000 1.0000
42.5100 416.0000 1.0000
42.5200 410.0000 1.0000
42.5300 423.0000 1.0000
42.5400 446.0000 1.0000
42.5500 424.0000 1.0000
42.5600 423.0000 1.0000
42.5700 413.0000 1.0000
42.5800 408.0000 1.0000
42.5900 413.0000 1.0000
42.6000 418.0000 1.0000
42.6100 423.0000 1.0000
42.6200 408.0000 1.0000
42.6300 431.0000 1.0000
42.6400 399.0000 1.0000
42.6500 392.0000 1.0000
42.6600 367.0000 1.0000
42.6700 422.0000 1.0000
42.6800 396.0000 1.0000
42.6900 423.0000 1.0000
42.7000 430.0000 1.0000
42.7100 396.0000 1.0000
42.7200 381.0000 1.0000
42.7300 412.0000 1.0000
42.7400 403.0000 1.0000
42.7500 404.0000 1.0000
42.7600 400.0000 1.0000
42.7700 359.0000 1.0000
42.7800 391.0000 1.0000
42.7900 381.0000 1.0000
42.8000 416.0000 1.0000
42.8100 422.0000 1.0000
42.8200 396.0000 1.0000
42.8300 408.0000 1.0000
42.8400 402.0000 1.0000
42.8500 387.0000 1.0000
42.8600 401.0000 1.0000
42.8700 376.0000 1.0000
42.8800 396.0000 1.0000
42.8900 401.0000 1.0000
42.9000 422.0000 1.0000
42.9100 394.0000 1.0000
42.9200 403.0000 1.0000
42.9300 389.0000 1.0000
42.9400 399.0000 1.0000
42.9500 358.0000 1.0000
42.9600 409.0000 1.0000
42.9700 433.0000 1.0000
42.9800 387.0000 1.0000
42.9900 410.0000 1.0000
43.0000 398.0000 1.0000
43.0100 439.0000 1.0000
43.0200 407.0000 1.0000
43.0300 393.0000 1.0000
43.0400 418.0000 1.0000
43.0500 403.0000 1.0000
43.0600 363.0000 1.0000
43.0700 380.0000 1.0000
43.0800 393.0000 1.0000
43.0900 404.0000 1.0000
43.1000 402.0000 1.0000
43.1100 429.0000 1.0000
43.1200 410.0000 1.0000
43.1300 396.0000 1.0000
43.1400 408.0000 1.0000
43.1500 417.0000 1.0000
43.1600 390.0000 1.0000
43.1700 382.0000 1.0000
43.1800 432.0000 1.0000
43.1900 398.0000 1.0000
43.2000 390.0000 1.0000
43.2100 381.0000 1.0000
43.2200 457.0000 1.0000
43.2300 402.0000 1.0000
43.2400 384.0000 1.0000
43.2500 411.0000 1.0000
43.2600 392.0000 1.0000
43.2700 381.0000 1.0000
43.2800 397.0000 1.0000
43.2900 393.0000 1.0000
43.3000 398.0000 1.0000
43.3100 397.0000 1.0000
43.3200 383.0000 1.0000
43.3300 401.0000 1.0000
43.3400 385.0000 1.0000
43.3500 436.0000 1.0000
43.3600 401.0000 1.0000
43.3700 404.0000 1.0000
43.3800 388.0000 1.0000
43.3900 401.0000 1.0000
43.4000 409.0000 1.0000
43.4100 434.0000 1.0000
43.4200 410.0000 1.0000
43.4300 405.0000 1.0000
43.4400 419.0000 1.0000
43.4500 410.0000 1.0000
43.4600 421.0000 1.0000
43.4700 393.0000 1.0000
43.4800 383.0000 1.0000
43.4900 371.0000 1.0000
43.5000 429.0000 1.0000
43.5100 406.0000 1.0000
43.5200 373.0000 1.0000
43.5300 422.0000 1.0000
43.5400 376.0000 1.0000
43.5500 390.0000 1.0000
43.5600 412.0000 1.0000
43.5700 402.0000 1.0000
43.5800 412.0000 1.0000
43.5900 409.0000 1.0000
43.6000 397.0000 1.0000
43.6100 393.0000 1.0000
43.6200 386.0000 1.0000
43.6300 406.0000 1.0000
43.6400 378.0000 1.0000
43.6500 375.0000 1.0000
43.6600 402.0000 1.0000
43.6700 417.0000 1.0000
43.6800 411.0000 1.0000
43.6900 422.0000 1.0000
43.7000 380.0000 1.0000
43.7100 392.0000 1.0000
43.7200 410.0000 1.0000
43.7300 418.0000 1.0000
43.7400 400.0000 1.0000
43.7500 380.0000 1.0000
43.7600 419.0000 1.0000
43.7700 406.0000 1.0000
43.7800 393.0000 1.0000
43.7900 404.0000 1.0000
43.8000 402.0000 1.0000
43.8100 404.0000 1.0000
43.8200 387.0000 1.0000
43.8300 397.0000 1.0000
43.8400 405.0000 1.0000
43.8500 392.0000 1.0000
43.8600 386.0000 1.0000
43.8700 394.0000 1.0000
43.8800 396.0000 1.0000
43.8900 406.0000 1.0000
43.9000 371.0000 1.0000
43.9100 376.0000 1.0000
43.9200 419.0000 1.0000
43.9300 406.0000 1.0000
43.9400 377.0000 1.0000
43.9500 383.0000 1.0000
43.9600 377.0000 1.0000
43.9700 397.0000 1.0000
43.9800 398.0000 1.0000
43.9900 397.0000 1.0000
44.0000 402.0000 1.0000
44.0100 412.0000 1.0000
44.0200 427.0000 1.0000
44.0300 380.0000 1.0000
44.0400 364.0000 1.0000
44.0500 393.0000 1.0000
44.0600 376.0000 1.0000
44.0700 384.0000 1.0000
44.0800 387.0000 1.0000
44.0900 365.0000 1.0000
44.1000 399.0000 1.0000
44.1100 383.0000 1.0000
44.1200 377.0000 1.0000
44.1300 377.0000 1.0000
44.1400 406.0000 1.0000
44.1500 401.0000 1.0000
44.1600 383.0000 1.0000
44.1700 372.0000 1.0000
44.1800 390.0000 1.0000
44.1900 401.0000 1.0000
44.2000 406.0000 1.0000
44.2100 377.0000 1.0000
44.2200 361.0000 1.0000
44.2300 420.0000 1.0000
44.2400 398.0000 1.0000
44.2500 363.0000 1.0000
44.2600 350.0000 1.0000
44.2700 373.0000 1.0000
44.2800 384.0000 1.0000
44.2900 381.0000 1.0000
44.3000 423.0000 1.0000
44.3100 405.0000 1.0000
44.3200 390.0000 1.0000
44.3300 411.0000 1.0000
44.3400 399.0000 1.0000
44.3500 378.0000 1.0000
44.3600 389.0000 1.0000
44.3700 388.0000 1.0000
44.3800 379.0000 1.0000
44.3900 395.0000 1.0000
44.4000 374.0000 1.0000
44.4100 376.0000 1.0000
44.4200 373.0000 1.0000
44.4300 366.0000 1.0000
44.4400 347.0000 1.0000
44.4500 372.0000 1.0000
44.4600 423.0000 1.0000
44.4700 378.0000 1.0000
44.4800 392.0000 1.0000
44.4900 374.0000 1.0000
44.5000 337.0000 1.0000
44.5100 374.0000 1.0000
44.5200 373.0000 1.0000
44.5300 361.0000 1.0000
44.5400 411.0000 1.0000
44.5500 422.0000 1.0000
44.5600 367.0000 1.0000
44.5700 370.0000 1.0000
44.5800 366.0000 1.0000
44.5900 351.0000 1.0000
44.6000 366.0000 1.0000
44.6100 409.0000 1.0000
44.6200 390.0000 1.0000
44.6300 364.0000 1.0000
44.6400 382.0000 1.0000
44.6500 356.0000 1.0000
44.6600 382.0000 1.0000
44.6700 350.0000 1.0000
44.6800 360.0000 1.0000
44.6900 400.0000 1.0000
44.7000 406.0000 1.0000
44.7100 388.0000 1.0000
44.7200 413.0000 1.0000
44.7300 371.0000 1.0000
44.7400 391.0000 1.0000
44.7500 386.0000 1.0000
44.7600 383.0000 1.0000
44.7700 397.0000 1.0000
44.7800 364.0000 1.0000
44.7900 380.0000 1.0000
44.8000 391.0000 1.0000
44.8100 377.0000 1.0000
44.8200 410.0000 1.0000
44.8300 399.0000 1.0000
44.8400 348.0000 1.0000
44.8500 394.0000 1.0000
44.8600 387.0000 1.0000
44.8700 361.0000 1.0000
44.8800 412.0000 1.0000
44.8900 366.0000 1.0000
44.9000 337.0000 1.0000
44.9100 394.0000 1.0000
44.9200 407.0000 1.0000
44.9300 370.0000 1.0000
44.9400 360.0000 1.0000
44.9500 375.0000 1.0000
44.9600 389.0000 1.0000
44.9700 358.0000 1.0000
44.9800 380.0000 1.0000
44.9900 377.0000 1.0000
45.0000 365.0000 1.0000
45.0100 352.0000 1.0000
45.0200 388.0000 1.0000
45.0300 386.0000 1.0000
45.0400 385.0000 1.0000
45.0500 366.0000 1.0000
45.0600 371.0000 1.0000
45.0700 361.0000 1.0000
45.0800 402.0000 1.0000
45.0900 374.0000 1.0000
45.1000 366.0000 1.0000
45.1100 379.0000 1.0000
45.1200 403.0000 1.0000
45.1300 358.0000 1.0000
45.1400 388.0000 1.0000
45.1500 371.0000 1.0000
45.1600 351.0000 1.0000
45.1700 360.0000 1.0000
45.1800 369.0000 1.0000
45.1900 377.0000 1.0000
45.2000 402.0000 1.0000
45.2100 383.0000 1.0000
45.2200 370.0000 1.0000
45.2300 393.0000 1.0000
45.2400 384.0000 1.0000
45.2500 394.0000 1.0000
45.2600 375.0000 1.0000
45.2700 367.0000 1.0000
45.2800 348.0000 1.0000
45.2900 354.0000 1.0000
45.3000 380.0000 1.0000
45.3100 379.0000 1.0000
45.3200 362.0000 1.0000
45.3300 397.0000 1.0000
45.3400 402.0000 1.0000
45.3500 401.0000 1.0000
45.3600 402.0000 1.0000
45.3700 375.0000 1.0000
45.3800 375.0000 1.0000
45.3900 391.0000 1.0000
45.4000 358.0000 1.0000
45.4100 364.0000 1.0000
45.4200 386.0000 1.0000
45.4300 368.0000 1.0000
45.4400 358.0000 1.0000
45.4500 382.0000 1.0000
45.4600 396.0000 1.0000
45.4700 344.0000 1.0000
45.4800 360.0000 1.0000
45.4900 387.0000 1.0000
45.5000 391.0000 1.0000
45.5100 361.0000 1.0000
45.5200 383.0000 1.0000
45.5300 376.0000 1.0000
45.5400 370.0000 1.0000
45.5500 390.0000 1.0000
45.5600 367.0000 1.0000
45.5700 380.0000 1.0000
45.5800 362.0000 1.0000
45.5900 355.0000 1.0000
45.6000 371.0000 1.0000
45.6100 409.0000 1.0000
45.6200 365.0000 1.0000
45.6300 368.0000 1.0000
45.6400 398.0000 1.0000
45.6500 353.0000 1.0000
45.6600 383.0000 1.0000
45.6700 360.0000 1.0000
45.6800 379.0000 1.0000
45.6900 363.0000 1.0000
45.7000 370.0000 1.0000
45.7100 378.0000 1.0000
45.7200 374.0000 1.0000
45.7300 383.0000 1.0000
45.7400 369.0000 1.0000
45.7500 370.0000 1.0000
45.7600 368.0000 1.0000
45.7700 381.0000 1.0000
45.7800 374.0000 1.0000
45.7900 373.0000 1.0000
45.8000 364.0000 1.0000
45.8100 382.0000 1.0000
45.8200 352.0000 1.0000
45.8300 364.0000 1.0000
45.8400 316.0000 1.0000
45.8500 356.0000 1.0000
45.8600 364.0000 1.0000
45.8700 375.0000 1.0000
45.8800 347.0000 1.0000
45.8900 362.0000 1.0000
45.9000 391.0000 1.0000
45.9100 354.0000 1.0000
45.9200 367.0000 1.0000
45.9300 368.0000 1.0000
45.9400 365.0000 1.0000
45.9500 373.0000 1.0000
45.9600 346.0000 1.0000
45.9700 330.0000 1.0000
45.9800 401.0000 1.0000
45.9900 365.0000 1.0000
46.0000 348.0000 1.0000
46.0100 372.0000 1.0000
46.0200 369.0000 1.0000
46.0300 364.0000 1.0000
46.0400 334.0000 1.0000
46.0500 386.0000 1.0000
46.0600 344.0000 1.0000
46.0700 356.0000 1.0000
46.0800 330.0000 1.0000
46.0900 335.0000 1.0000
46.1000 380.0000 1.0000
46.1100 377.0000 1.0000
46.1200 353.0000 1.0000
46.1300 381.0000 1.0000
46.1400 391.0000 1.0000
46.1500 386.0000 1.0000
46.1600 392.0000 1.0000
46.1700 399.0000 1.0000
46.1800 391.0000 1.0000
46.1900 386.0000 1.0000
46.2000 385.0000 1.0000
46.2100 359.0000 1.0000
46.2200 387.0000 1.0000
46.2300 373.0000 1.0000
46.2400 378.0000 1.0000
46.2500 413.0000 1.0000
46.2600 357.0000 1.0000
46.2700 374.0000 1.0000
46.2800 364.0000 1.0000
46.2900 351.0000 1.0000
46.3000 368.0000 1.0000
46.3100 362.0000 1.0000
46.3200 351.0000 1.0000
46.3300 351.0000 1.0000
46.3400 374.0000 1.0000
46.3500 366.0000 1.0000
46.3600 373.0000 1.0000
46.3700 360.0000 1.0000
46.3800 347.0000 1.0000
46.3900 358.0000 1.0000
46.4000 361.0000 1.0000
46.4100 363.0000 1.0000
46.4200 382.0000 1.0000
46.4300 320.0000 1.0000
46.4400 367.0000 1.0000
46.4500 360.0000 1.0000
46.4600 363.0000 1.0000
46.4700 342.0000 1.0000
46.4800 382.0000 1.0000
46.4900 389.0000 1.0000
46.5000 375.0000 1.0000
46.5100 341.0000 1.0000
46.5200 362.0000 1.0000
46.5300 390.0000 1.0000
46.5400 371.0000 1.0000
46.5500 347.0000 1.0000
46.5600 368.0000 1.0000
46.5700 351.0000 1.0000
46.5800 335.0000 1.0000
46.5900 339.0000 1.0000
46.6000 394.0000 1.0000
46.6100 389.0000 1.0000
46.6200 376.0000 1.0000
46.6300 387.0000 1.0000
46.6400 366.0000 1.0000
46.6500 349.0000 1.0000
46.6600 363.0000 1.0000
46.6700 357.0000 1.0000
46.6800 372.0000 1.0000
46.6900 342.0000 1.0000
46.7000 379.0000 1.0000
46.7100 343.0000 1.0000
46.7200 330.0000 1.0000
46.7300 393.0000 1.0000
46.7400 374.0000 1.0000
46.7500 353.0000 1.0000
46.7600 353.0000 1.0000
46.7700 392.0000 1.0000
46.7800 356.0000 1.0000
46.7900 387.0000 1.0000
46.8000 392.0000 1.0000
46.8100 379.0000 1.0000
46.8200 364.0000 1.0000
46.8300 352.0000 1.0000
46.8400 359.0000 1.0000
46.8500 380.0000 1.0000
46.8600 383.0000 1.0000
46.8700 330.0000 1.0000
46.8800 335.0000 1.0000
46.8900 367.0000 1.0000
46.9000 382.0000 1.0000
46.9100 340.0000 1.0000
46.9200 389.0000 1.0000
46.9300 340.0000 1.0000
46.9400 350.0000 1.0000
46.9500 400.0000 1.0000
46.9600 350.0000 1.0000
46.9700 358.0000 1.0000
46.9800 374.0000 1.0000
46.9900 389.0000 1.0000
47.0000 370.0000 1.0000
47.0100 383.0000 1.0000
47.0200 359.0000 1.0000
47.0300 364.0000 1.0000
47.0400 357.0000 1.0000
47.0500 355.0000 1.0000
47.0600 371.0000 1.0000
47.0700 344.0000 1.0000
47.0800 336.0000 1.0000
47.0900 326.0000 1.0000
47.1000 351.0000 1.0000
47.1100 360.0000 1.0000
47.1200 360.0000 1.0000
47.1300 364.0000 1.0000
47.1400 347.0000 1.0000
47.1500 387.0000 1.0000
47.1600 401.0000 1.0000
47.1700 353.0000 1.0000
47.1800 370.0000 1.0000
47.1900 344.0000 1.0000
47.2000 343.0000 1.0000
47.2100 358.0000 1.0000
47.2200 356.0000 1.0000
47.2300 373.0000 1.0000
47.2400 387.0000 1.0000
47.2500 375.0000 1.0000
47.2600 337.0000 1.0000
47.2700 350.0000 1.0000
47.2800 353.0000 1.0000
47.2900 343.0000 1.0000
47.3000 334.0000 1.0000
47.3100 344.0000 1.0000
47.3200 363.0000 1.0000
47.3300 385.0000 1.0000
47.3400 354.0000 1.0000
47.3500 377.0000 1.0000
47.3600 357.0000 1.0000
47.3700 380.0000 1.0000
47.3800 368.0000 1.0000
47.3900 336.0000 1.0000
47.4000 339.0000 1.0000
47.4100 367.0000 1.0000
47.4200 366.0000 1.0000
47.4300 350.0000 1.0000
47.4400 346.0000 1.0000
47.4500 357.0000 1.0000
47.4600 358.0000 1.0000
47.4700 357.0000 1.0000
47.4800 331.0000 1.0000
47.4900 339.0000 1.0000
47.5000 328.0000 1.0000
47.5100 338.0000 1.0000
47.5200 390.0000 1.0000
47.5300 386.0000 1.0000
47.5400 320.0000 1.0000
47.5500 326.0000 1.0000
47.5600 369.0000 1.0000
47.5700 325.0000 1.0000
47.5800 305.0000 1.0000
47.5900 328.0000 1.0000
47.6000 345.0000 1.0000
47.6100 362.0000 1.0000
47.6200 345.0000 1.0000
47.6300 342.0000 1.0000
47.6400 343.0000 1.0000
47.6500 356.0000 1.0000
47.6600 355.0000 1.0000
47.6700 369.0000 1.0000
47.6800 377.0000 1.0000
47.6900 335.0000 1.0000
47.7000 348.0000 1.0000
47.7100 368.0000 1.0000
47.7200 360.0000 1.0000
47.7300 346.0000 1.0000
47.7400 344.0000 1.0000
47.7500 364.0000 1.0000
47.7600 381.0000 1.0000
47.7700 354.0000 1.0000
47.7800 335.0000 1.0000
47.7900 346.0000 1.0000
47.8000 353.0000 1.0000
47.8100 363.0000 1.0000
47.8200 351.0000 1.0000
47.8300 323.0000 1.0000
47.8400 326.0000 1.0000
47.8500 357.0000 1.0000
47.8600 334.0000 1.0000
47.8700 365.0000 1.0000
47.8800 381.0000 1.0000
47.8900 356.0000 1.0000
47.9000 353.0000 1.0000
47.9100 369.0000 1.0000
47.9200 352.0000 1.0000
47.9300 343.0000 1.0000
47.9400 359.0000 1.0000
47.9500 379.0000 1.0000
47.9600 361.0000 1.0000
47.9700 340.0000 1.0000
47.9800 368.0000 1.0000
47.9900 323.0000 1.0000
48.0000 377.0000 1.0000
48.0100 358.0000 1.0000
48.0200 337.0000 1.0000
48.0300 361.0000 1.0000
48.0400 333.0000 1.0000
48.0500 322.0000 1.0000
48.0600 390.0000 1.0000
48.0700 399.0000 1.0000
48.0800 342.0000 1.0000
48.0900 343.0000 1.0000
48.1000 355.0000 1.0000
48.1100 360.0000 1.0000
48.1200 379.0000 1.0000
48.1300 352.0000 1.0000
48.1400 368.0000 1.0000
48.1500 370.0000 1.0000
48.1600 346.0000 1.0000
48.1700 354.0000 1.0000
48.1800 347.0000 1.0000
48.1900 376.0000 1.0000
48.2000 347.0000 1.0000
48.2100 362.0000 1.0000
48.2200 349.0000 1.0000
48.2300 362.0000 1.0000
48.2400 333.0000 1.0000
48.2500 323.0000 1.0000
48.2600 354.0000 1.0000
48.2700 324.0000 1.0000
48.2800 362.0000 1.0000
48.2900 332.0000 1.0000
48.3000 358.0000 1.0000
48.3100 330.0000 1.0000
48.3200 344.0000 1.0000
48.3300 318.0000 1.0000
48.3400 344.0000 1.0000
48.3500 371.0000 1.0000
48.3600 361.0000 1.0000
48.3700 337.0000 1.0000
48.3800 359.0000 1.0000
48.3900 356.0000 1.0000
48.4000 313.0000 1.0000
48.4100 335.0000 1.0000
48.4200 344.0000 1.0000
48.4300 351.0000 1.0000
48.4400 357.0000 1.0000
48.4500 333.0000 1.0000
48.4600 350.0000 1.0000
48.4700 349.0000 1.0000
48.4800 349.0000 1.0000
48.4900 345.0000 1.0000
48.5000 336.0000 1.0000
48.5100 318.0000 1.0000
48.5200 356.0000 1.0000
48.5300 326.0000 1.0000
48.5400 306.0000 1.0000
48.5500 319.0000 1.0000
48.5600 339.0000 1.0000
48.5700 375.0000 1.0000
48.5800 361.0000 1.0000
48.5900 365.0000 1.0000
48.6000 340.0000 1.0000
48.6100 366.0000 1.0000
48.6200 353.0000 1.0000
48.6300 360.0000 1.0000
48.6400 346.0000 1.0000
48.6500 354.0000 1.0000
48.6600 355.0000 1.0000
48.6700 335.0000 1.0000
48.6800 356.0000 1.0000
48.6900 348.0000 1.0000
48.7000 345.0000 1.0000
48.7100 343.0000 1.0000
48.7200 346.0000 1.0000
48.7300 331.0000 1.0000
48.7400 338.0000 1.0000
48.7500 334.0000 1.0000
48.7600 334.0000 1.0000
48.7700 325.0000 1.0000
48.7800 347.0000 1.0000
48.7900 371.0000 1.0000
48.8000 355.0000 1.0000
48.8100 342.0000 1.0000
48.8200 341.0000 1.0000
48.8300 343.0000 1.0000
48.8400 313.0000 1.0000
48.8500 343.0000 1.0000
48.8600 377.0000 1.0000
48.8700 346.0000 1.0000
48.8800 361.0000 1.0000
48.8900 353.0000 1.0000
48.9000 362.0000 1.0000
48.9100 373.0000 1.0000
48.9200 370.0000 1.0000
48.9300 348.0000 1.0000
48.9400 330.0000 1.0000
48.9500 352.0000 1.0000
48.9600 352.0000 1.0000
48.9700 360.0000 1.0000
48.9800 375.0000 1.0000
48.9900 370.0000 1.0000
49.0000 367.0000 1.0000
49.0100 355.0000 1.0000
49.0200 327.0000 1.0000
49.0300 345.0000 1.0000
49.0400 367.0000 1.0000
49.0500 358.0000 1.0000
49.0600 362.0000 1.0000
49.0700 356.0000 1.0000
49.0800 328.0000 1.0000
49.0900 341.0000 1.0000
49.1000 350.0000 1.0000
49.1100 342.0000 1.0000
49.1200 336.0000 1.0000
49.1300 361.0000 1.0000
49.1400 363.0000 1.0000
49.1500 370.0000 1.0000
49.1600 349.0000 1.0000
49.1700 384.0000 1.0000
49.1800 407.0000 1.0000
49.1900 382.0000 1.0000
49.2000 356.0000 1.0000
49.2100 357.0000 1.0000
49.2200 354.0000 1.0000
49.2300 386.0000 1.0000
49.2400 360.0000 1.0000
49.2500 361.0000 1.0000
49.2600 342.0000 1.0000
49.2700 349.0000 1.0000
49.2800 374.0000 1.0000
49.2900 363.0000 1.0000
49.3000 388.0000 1.0000
49.3100 406.0000 1.0000
49.3200 398.0000 1.0000
49.3300 390.0000 1.0000
49.3400 398.0000 1.0000
49.3500 403.0000 1.0000
49.3600 452.0000 1.0000
49.3700 405.0000 1.0000
49.3800 382.0000 1.0000
49.3900 418.0000 1.0000
49.4000 446.0000 1.0000
49.4100 441.0000 1.0000
49.4200 422.0000 1.0000
49.4300 438.0000 1.0000
49.4400 418.0000 1.0000
49.4500 397.0000 1.0000
49.4600 438.0000 1.0000
49.4700 422.0000 1.0000
49.4800 403.0000 1.0000
49.4900 392.0000 1.0000
49.5000 394.0000 1.0000
49.5100 389.0000 1.0000
49.5200 406.0000 1.0000
49.5300 404.0000 1.0000
49.5400 410.0000 1.0000
49.5500 387.0000 1.0000
49.5600 390.0000 1.0000
49.5700 412.0000 1.0000
49.5800 403.0000 1.0000
49.5900 400.0000 1.0000
49.6000 389.0000 1.0000
49.6100 349.0000 1.0000
49.6200 387.0000 1.0000
49.6300 356.0000 1.0000
49.6400 366.0000 1.0000
49.6500 345.0000 1.0000
49.6600 352.0000 1.0000
49.6700 360.0000 1.0000
49.6800 365.0000 1.0000
49.6900 361.0000 1.0000
49.7000 333.0000 1.0000
49.7100 360.0000 1.0000
49.7200 381.0000 1.0000
49.7300 374.0000 1.0000
49.7400 364.0000 1.0000
49.7500 372.0000 1.0000
49.7600 373.0000 1.0000
49.7700 371.0000 1.0000
49.7800 355.0000 1.0000
49.7900 352.0000 1.0000
49.8000 357.0000 1.0000
49.8100 336.0000 1.0000
49.8200 387.0000 1.0000
49.8300 343.0000 1.0000
49.8400 364.0000 1.0000
49.8500 349.0000 1.0000
49.8600 360.0000 1.0000
49.8700 344.0000 1.0000
49.8800 336.0000 1.0000
49.8900 337.0000 1.0000
49.9000 365.0000 1.0000
49.9100 361.0000 1.0000
49.9200 352.0000 1.0000
49.9300 329.0000 1.0000
49.9400 326.0000 1.0000
49.9500 384.0000 1.0000
49.9600 336.0000 1.0000
49.9700 330.0000 1.0000
49.9800 352.0000 1.0000
49.9900 339.0000 1.0000
50.0000 332.0000 1.0000
50.0100 346.0000 1.0000
50.0200 339.0000 1.0000
50.0300 355.0000 1.0000
50.0400 335.0000 1.0000
50.0500 363.0000 1.0000
50.0600 379.0000 1.0000
50.0700 351.0000 1.0000
50.0800 324.0000 1.0000
50.0900 348.0000 1.0000
50.1000 347.0000 1.0000
50.1100 361.0000 1.0000
50.1200 375.0000 1.0000
50.1300 325.0000 1.0000
50.1400 350.0000 1.0000
50.1500 317.0000 1.0000
50.1600 333.0000 1.0000
50.1700 352.0000 1.0000
50.1800 355.0000 1.0000
50.1900 349.0000 1.0000
50.2000 354.0000 1.0000
50.2100 370.0000 1.0000
50.2200 356.0000 1.0000
50.2300 331.0000 1.0000
50.2400 358.0000 1.0000
50.2500 315.0000 1.0000
50.2600 357.0000 1.0000
50.2700 369.0000 1.0000
50.2800 339.0000 1.0000
50.2900 341.0000 1.0000
50.3000 346.0000 1.0000
50.3100 381.0000 1.0000
50.3200 374.0000 1.0000
50.3300 347.0000 1.0000
50.3400 342.0000 1.0000
50.3500 335.0000 1.0000
50.3600 345.0000 1.0000
50.3700 325.0000 1.0000
50.3800 343.0000 1.0000
50.3900 345.0000 1.0000
50.4000 367.0000 1.0000
50.4100 371.0000 1.0000
50.4200 347.0000 1.0000
50.4300 366.0000 1.0000
50.4400 342.0000 1.0000
50.4500 348.0000 1.0000
50.4600 355.0000 1.0000
50.4700 354.0000 1.0000
50.4800 331.0000 1.0000
50.4900 347.0000 1.0000
50.5000 331.0000 1.0000
50.5100 352.0000 1.0000
50.5200 370.0000 1.0000
50.5300 327.0000 1.0000
50.5400 368.0000 1.0000
50.5500 362.0000 1.0000
50.5600 358.0000 1.0000
50.5700 326.0000 1.0000
50.5800 311.0000 1.0000
50.5900 343.0000 1.0000
50.6000 347.0000 1.0000
50.6100 335.0000 1.0000
50.6200 322.0000 1.0000
50.6300 333.0000 1.0000
50.6400 350.0000 1.0000
50.6500 372.0000 1.0000
50.6600 385.0000 1.0000
50.6700 346.0000 1.0000
50.6800 349.0000 1.0000
50.6900 373.0000 1.0000
50.7000 326.0000 1.0000
50.7100 321.0000 1.0000
50.7200 370.0000 1.0000
50.7300 366.0000 1.0000
50.7400 376.0000 1.0000
50.7500 377.0000 1.0000
50.7600 347.0000 1.0000
50.7700 346.0000 1.0000
50.7800 376.0000 1.0000
50.7900 364.0000 1.0000
50.8000 358.0000 1.0000
50.8100 345.0000 1.0000
50.8200 376.0000 1.0000
50.8300 358.0000 1.0000
50.8400 353.0000 1.0000
50.8500 349.0000 1.0000
50.8600 345.0000 1.0000
50.8700 383.0000 1.0000
50.8800 371.0000 1.0000
50.8900 322.0000 1.0000
50.9000 353.0000 1.0000
50.9100 371.0000 1.0000
50.9200 352.0000 1.0000
50.9300 374.0000 1.0000
50.9400 409.0000 1.0000
50.9500 376.0000 1.0000
50.9600 372.0000 1.0000
50.9700 408.0000 1.0000
50.9800 369.0000 1.0000
50.9900 369.0000 1.0000
51.0000 370.0000 1.0000
51.0100 375.0000 1.0000
51.0200 385.0000 1.0000
51.0300 380.0000 1.0000
51.0400 378.0000 1.0000
51.0500 395.0000 1.0000
51.0600 372.0000 1.0000
51.0700 414.0000 1.0000
51.0800 409.0000 1.0000
51.0900 401.0000 1.0000
51.1000 396.0000 1.0000
51.1100 413.0000 1.0000
51.1200 443.0000 1.0000
51.1300 425.0000 1.0000
51.1400 442.0000 1.0000
51.1500 442.0000 1.0000
51.1600 465.0000 1.0000
51.1700 453.0000 1.0000
51.1800 460.0000 1.0000
51.1900 468.0000 1.0000
51.2000 474.0000 1.0000
51.2100 500.0000 1.0000
51.2200 557.0000 1.0000
51.2300 530.0000 1.0000
51.2400 569.0000 1.0000
51.2500 576.0000 1.0000
51.2600 600.0000 1.0000
51.2700 610.0000 1.0000
51.2800 613.0000 1.0000
51.2900 665.0000 1.0000
51.3000 740.0000 1.0000
51.3100 745.0000 1.0000
51.3200 777.0000 1.0000
51.3300 846.0000 1.0000
51.3400 896.0000 1.0000
51.3500 929.0000 1.0000
51.3600 954.0000 1.0000
51.3700 1063.0000 1.0000
51.3800 1124.0000 1.0000
51.3900 1238.0000 1.0000
51.4000 1343.0000 1.0000
51.4100 1431.0000 1.0000
51.4200 1521.0000 1.0000
51.4300 1735.0000 1.0000
51.4400 1704.0000 1.0000
51.4500 1811.0000 1.0000
51.4600 1888.0000 1.0000
51.4700 1962.0000 1.0000
51.4800 1999.0000 1.0000
51.4900 2023.0000 1.0000
51.5000 2070.0000 1.0000
51.5100 2074.0000 1.0000
51.5200 2050.0000 1.0000
51.5300 1962.0000 1.0000
51.5400 1908.0000 1.0000
51.5500 1828.0000 1.0000
51.5600 1715.0000 1.0000
51.5700 1728.0000 1.0000
51.5800 1628.0000 1.0000
51.5900 1578.0000 1.0000
51.6000 1590.0000 1.0000
51.6100 1514.0000 1.0000
51.6200 1463.0000 1.0000
51.6300 1472.0000 1.0000
51.6400 1365.0000 1.0000
51.6500 1329.0000 1.0000
51.6600 1270.0000 1.0000
51.6700 1199.0000 1.0000
51.6800 1189.0000 1.0000
51.6900 1017.0000 1.0000
51.7000 959.0000 1.0000
51.7100 939.0000 1.0000
51.7200 851.0000 1.0000
51.7300 825.0000 1.0000
51.7400 759.0000 1.0000
51.7500 705.0000 1.0000
51.7600 686.0000 1.0000
51.7700 660.0000 1.0000
51.7800 638.0000 1.0000
51.7900 600.0000 1.0000
51.8000 580.0000 1.0000
51.8100 565.0000 1.0000
51.8200 556.0000 1.0000
51.8300 546.0000 1.0000
51.8400 493.0000 1.0000
51.8500 483.0000 1.0000
51.8600 452.0000 1.0000
51.8700 465.0000 1.0000
51.8800 492.0000 1.0000
51.8900 452.0000 1.0000
51.9000 440.0000 1.0000
51.9100 433.0000 1.0000
51.9200 428.0000 1.0000
51.9300 440.0000 1.0000
51.9400 434.0000 1.0000
51.9500 413.0000 1.0000
51.9600 413.0000 1.0000
51.9700 373.0000 1.0000
51.9800 388.0000 1.0000
51.9900 383.0000 1.0000
52.0000 389.0000 1.0000
52.0100 421.0000 1.0000
52.0200 402.0000 1.0000
52.0300 406.0000 1.0000
52.0400 397.0000 1.0000
52.0500 377.0000 1.0000
52.0600 383.0000 1.0000
52.0700 367.0000 1.0000
52.0800 379.0000 1.0000
52.0900 373.0000 1.0000
52.1000 350.0000 1.0000
52.1100 382.0000 1.0000
52.1200 372.0000 1.0000
52.1300 367.0000 1.0000
52.1400 304.0000 1.0000
52.1500 335.0000 1.0000
52.1600 380.0000 1.0000
52.1700 357.0000 1.0000
52.1800 405.0000 1.0000
52.1900 382.0000 1.0000
52.2000 374.0000 1.0000
52.2100 347.0000 1.0000
52.2200 334.0000 1.0000
52.2300 355.0000 1.0000
52.2400 367.0000 1.0000
52.2500 368.0000 1.0000
52.2600 334.0000 1.0000
52.2700 375.0000 1.0000
52.2800 373.0000 1.0000
52.2900 350.0000 1.0000
52.3000 358.0000 1.0000
52.3100 360.0000 1.0000
52.3200 371.0000 1.0000
52.3300 353.0000 1.0000
52.3400 361.0000 1.0000
52.3500 351.0000 1.0000
52.3600 364.0000 1.0000
52.3700 333.0000 1.0000
52.3800 332.0000 1.0000
52.3900 354.0000 1.0000
52.4000 359.0000 1.0000
52.4100 346.0000 1.0000
52.4200 327.0000 1.0000
52.4300 370.0000 1.0000
52.4400 345.0000 1.0000
52.4500 345.0000 1.0000
52.4600 333.0000 1.0000
52.4700 341.0000 1.0000
52.4800 337.0000 1.0000
52.4900 348.0000 1.0000
52.5000 354.0000 1.0000
52.5100 349.0000 1.0000
52.5200 362.0000 1.0000
52.5300 344.0000 1.0000
52.5400 349.0000 1.0000
52.5500 346.0000 1.0000
52.5600 336.0000 1.0000
52.5700 353.0000 1.0000
52.5800 363.0000 1.0000
52.5900 381.0000 1.0000
52.6000 358.0000 1.0000
52.6100 356.0000 1.0000
52.6200 338.0000 1.0000
52.6300 340.0000 1.0000
52.6400 326.0000 1.0000
52.6500 369.0000 1.0000
52.6600 362.0000 1.0000
52.6700 345.0000 1.0000
52.6800 351.0000 1.0000
52.6900 326.0000 1.0000
52.7000 354.0000 1.0000
52.7100 373.0000 1.0000
52.7200 348.0000 1.0000
52.7300 329.0000 1.0000
52.7400 336.0000 1.0000
52.7500 315.0000 1.0000
52.7600 322.0000 1.0000
52.7700 330.0000 1.0000
52.7800 344.0000 1.0000
52.7900 328.0000 1.0000
52.8000 338.0000 1.0000
52.8100 346.0000 1.0000
52.8200 346.0000 1.0000
52.8300 334.0000 1.0000
52.8400 350.0000 1.0000
52.8500 346.0000 1.0000
52.8600 340.0000 1.0000
52.8700 334.0000 1.0000
52.8800 337.0000 1.0000
52.8900 340.0000 1.0000
52.9000 333.0000 1.0000
52.9100 337.0000 1.0000
52.9200 314.0000 1.0000
52.9300 337.0000 1.0000
52.9400 328.0000 1.0000
52.9500 319.0000 1.0000
52.9600 331.0000 1.0000
52.9700 372.0000 1.0000
52.9800 346.0000 1.0000
52.9900 341.0000 1.0000
53.0000 360.0000 1.0000
53.0100 328.0000 1.0000
53.0200 335.0000 1.0000
53.0300 366.0000 1.0000
53.0400 313.0000 1.0000
53.0500 322.0000 1.0000
53.0600 313.0000 1.0000
53.0700 312.0000 1.0000
53.0800 369.0000 1.0000
53.0900 342.0000 1.0000
53.1000 314.0000 1.0000
53.1100 346.0000 1.0000
53.1200 365.0000 1.0000
53.1300 335.0000 1.0000
53.1400 370.0000 1.0000
53.1500 346.0000 1.0000
53.1600 325.0000 1.0000
53.1700 326.0000 1.0000
53.1800 364.0000 1.0000
53.1900 374.0000 1.0000
53.2000 325.0000 1.0000
53.2100 331.0000 1.0000
53.2200 340.0000 1.0000
53.2300 318.0000 1.0000
53.2400 303.0000 1.0000
53.2500 341.0000 1.0000
53.2600 343.0000 1.0000
53.2700 329.0000 1.0000
53.2800 327.0000 1.0000
53.2900 347.0000 1.0000
53.3000 334.0000 1.0000
53.3100 357.0000 1.0000
53.3200 344.0000 1.0000
53.3300 349.0000 1.0000
53.3400 338.0000 1.0000
53.3500 335.0000 1.0000
53.3600 311.0000 1.0000
53.3700 317.0000 1.0000
53.3800 325.0000 1.0000
53.3900 326.0000 1.0000
53.4000 314.0000 1.0000
53.4100 311.0000 1.0000
53.4200 333.0000 1.0000
53.4300 323.0000 1.0000
53.4400 336.0000 1.0000
53.4500 317.0000 1.0000
53.4600 326.0000 1.0000
53.4700 309.0000 1.0000
53.4800 318.0000 1.0000
53.4900 339.0000 1.0000
53.5000 309.0000 1.0000
53.5100 300.0000 1.0000
53.5200 297.0000 1.0000
53.5300 323.0000 1.0000
53.5400 337.0000 1.0000
53.5500 340.0000 1.0000
53.5600 333.0000 1.0000
53.5700 315.0000 1.0000
53.5800 352.0000 1.0000
53.5900 336.0000 1.0000
53.6000 330.0000 1.0000
53.6100 340.0000 1.0000
53.6200 356.0000 1.0000
53.6300 365.0000 1.0000
53.6400 368.0000 1.0000
53.6500 331.0000 1.0000
53.6600 358.0000 1.0000
53.6700 341.0000 1.0000
53.6800 374.0000 1.0000
53.6900 318.0000 1.0000
53.7000 344.0000 1.0000
53.7100 358.0000 1.0000
53.7200 325.0000 1.0000
53.7300 332.0000 1.0000
53.7400 359.0000 1.0000
53.7500 330.0000 1.0000
53.7600 297.0000 1.0000
53.7700 320.0000 1.0000
53.7800 363.0000 1.0000
53.7900 320.0000 1.0000
53.8000 346.0000 1.0000
53.8100 330.0000 1.0000
53.8200 328.0000 1.0000
53.8300 324.0000 1.0000
53.8400 369.0000 1.0000
53.8500 368.0000 1.0000
53.8600 371.0000 1.0000
53.8700 343.0000 1.0000
53.8800 371.0000 1.0000
53.8900 347.0000 1.0000
53.9000 357.0000 1.0000
53.9100 303.0000 1.0000
53.9200 350.0000 1.0000
53.9300 362.0000 1.0000
53.9400 365.0000 1.0000
53.9500 374.0000 1.0000
53.9600 384.0000 1.0000
53.9700 378.0000 1.0000
53.9800 375.0000 1.0000
53.9900 384.0000 1.0000
54.0000 366.0000 1.0000
54.0100 424.0000 1.0000
54.0200 401.0000 1.0000
54.0300 372.0000 1.0000
54.0400 389.0000 1.0000
54.0500 394.0000 1.0000
54.0600 381.0000 1.0000
54.0700 383.0000 1.0000
54.0800 365.0000 1.0000
54.0900 378.0000 1.0000
54.1000 363.0000 1.0000
54.1100 367.0000 1.0000
54.1200 366.0000 1.0000
54.1300 391.0000 1.0000
54.1400 357.0000 1.0000
54.1500 390.0000 1.0000
54.1600 388.0000 1.0000
54.1700 370.0000 1.0000
54.1800 346.0000 1.0000
54.1900 398.0000 1.0000
54.2000 391.0000 1.0000
54.2100 367.0000 1.0000
54.2200 372.0000 1.0000
54.2300 391.0000 1.0000
54.2400 375.0000 1.0000
54.2500 366.0000 1.0000
54.2600 384.0000 1.0000
54.2700 373.0000 1.0000
54.2800 395.0000 1.0000
54.2900 371.0000 1.0000
54.3000 370.0000 1.0000
54.3100 376.0000 1.0000
54.3200 394.0000 1.0000
54.3300 393.0000 1.0000
54.3400 388.0000 1.0000
54.3500 369.0000 1.0000
54.3600 406.0000 1.0000
54.3700 374.0000 1.0000
54.3800 403.0000 1.0000
54.3900 421.0000 1.0000
54.4000 431.0000 1.0000
54.4100 411.0000 1.0000
54.4200 381.0000 1.0000
54.4300 439.0000 1.0000
54.4400 445.0000 1.0000
54.4500 446.0000 1.0000
54.4600 453.0000 1.0000
54.4700 457.0000 1.0000
54.4800 433.0000 1.0000
54.4900 466.0000 1.0000
54.5000 484.0000 1.0000
54.5100 483.0000 1.0000
54.5200 479.0000 1.0000
54.5300 459.0000 1.0000
54.5400 460.0000 1.0000
54.5500 466.0000 1.0000
54.5600 465.0000 1.0000
54.5700 449.0000 1.0000
54.5800 452.0000 1.0000
54.5900 479.0000 1.0000
54.6000 451.0000 1.0000
54.6100 473.0000 1.0000
54.6200 448.0000 1.0000
54.6300 440.0000 1.0000
54.6400 441.0000 1.0000
54.6500 444.0000 1.0000
54.6600 437.0000 1.0000
54.6700 409.0000 1.0000
54.6800 399.0000 1.0000
54.6900 428.0000 1.0000
54.7000 415.0000 1.0000
54.7100 421.0000 1.0000
54.7200 431.0000 1.0000
54.7300 425.0000 1.0000
54.7400 390.0000 1.0000
54.7500 371.0000 1.0000
54.7600 405.0000 1.0000
54.7700 401.0000 1.0000
54.7800 408.0000 1.0000
54.7900 373.0000 1.0000
54.8000 375.0000 1.0000
54.8100 385.0000 1.0000
54.8200 372.0000 1.0000
54.8300 342.0000 1.0000
54.8400 368.0000 1.0000
54.8500 351.0000 1.0000
54.8600 360.0000 1.0000
54.8700 378.0000 1.0000
54.8800 397.0000 1.0000
54.8900 343.0000 1.0000
54.9000 358.0000 1.0000
54.9100 340.0000 1.0000
54.9200 352.0000 1.0000
54.9300 339.0000 1.0000
54.9400 296.0000 1.0000
54.9500 358.0000 1.0000
54.9600 349.0000 1.0000
54.9700 355.0000 1.0000
54.9800 325.0000 1.0000
54.9900 361.0000 1.0000
55.0000 353.0000 1.0000
55.0100 351.0000 1.0000
55.0200 336.0000 1.0000
55.0300 325.0000 1.0000
55.0400 342.0000 1.0000
55.0500 336.0000 1.0000
55.0600 326.0000 1.0000
55.0700 318.0000 1.0000
55.0800 338.0000 1.0000
55.0900 315.0000 1.0000
55.1000 333.0000 1.0000
55.1100 317.0000 1.0000
55.1200 355.0000 1.0000
55.1300 330.0000 1.0000
55.1400 331.0000 1.0000
55.1500 323.0000 1.0000
55.1600 338.0000 1.0000
55.1700 327.0000 1.0000
55.1800 365.0000 1.0000
55.1900 329.0000 1.0000
55.2000 344.0000 1.0000
55.2100 346.0000 1.0000
55.2200 336.0000 1.0000
55.2300 340.0000 1.0000
55.2400 345.0000 1.0000
55.2500 314.0000 1.0000
55.2600 306.0000 1.0000
55.2700 310.0000 1.0000
55.2800 346.0000 1.0000
55.2900 328.0000 1.0000
55.3000 314.0000 1.0000
55.3100 317.0000 1.0000
55.3200 336.0000 1.0000
55.3300 319.0000 1.0000
55.3400 305.0000 1.0000
55.3500 323.0000 1.0000
55.3600 316.0000 1.0000
55.3700 311.0000 1.0000
55.3800 291.0000 1.0000
55.3900 319.0000 1.0000
55.4000 304.0000 1.0000
55.4100 314.0000 1.0000
55.4200 289.0000 1.0000
55.4300 296.0000 1.0000
55.4400 321.0000 1.0000
55.4500 320.0000 1.0000
55.4600 342.0000 1.0000
55.4700 360.0000 1.0000
55.4800 333.0000 1.0000
55.4900 292.0000 1.0000
55.5000 321.0000 1.0000
55.5100 318.0000 1.0000
55.5200 318.0000 1.0000
55.5300 300.0000 1.0000
55.5400 331.0000 1.0000
55.5500 319.0000 1.0000
55.5600 309.0000 1.0000
55.5700 314.0000 1.0000
55.5800 306.0000 1.0000
55.5900 305.0000 1.0000
55.6000 296.0000 1.0000
55.6100 328.0000 1.0000
55.6200 308.0000 1.0000
55.6300 342.0000 1.0000
55.6400 325.0000 1.0000
55.6500 317.0000 1.0000
55.6600 323.0000 1.0000
55.6700 296.0000 1.0000
55.6800 326.0000 1.0000
55.6900 317.0000 1.0000
55.7000 310.0000 1.0000
55.7100 327.0000 1.0000
55.7200 318.0000 1.0000
55.7300 351.0000 1.0000
55.7400 299.0000 1.0000
55.7500 331.0000 1.0000
55.7600 310.0000 1.0000
55.7700 302.0000 1.0000
55.7800 314.0000 1.0000
55.7900 324.0000 1.0000
55.8000 319.0000 1.0000
55.8100 324.0000 1.0000
55.8200 317.0000 1.0000
55.8300 328.0000 1.0000
55.8400 319.0000 1.0000
55.8500 342.0000 1.0000
55.8600 304.0000 1.0000
55.8700 327.0000 1.0000
55.8800 344.0000 1.0000
55.8900 355.0000 1.0000
55.9000 306.0000 1.0000
55.9100 315.0000 1.0000
55.9200 341.0000 1.0000
55.9300 304.0000 1.0000
55.9400 324.0000 1.0000
55.9500 332.0000 1.0000
55.9600 313.0000 1.0000
55.9700 323.0000 1.0000
55.9800 330.0000 1.0000
55.9900 338.0000 1.0000
56.0000 335.0000 1.0000
56.0100 316.0000 1.0000
56.0200 331.0000 1.0000
56.0300 305.0000 1.0000
56.0400 347.0000 1.0000
56.0500 295.0000 1.0000
56.0600 314.0000 1.0000
56.0700 329.0000 1.0000
56.0800 322.0000 1.0000
56.0900 313.0000 1.0000
56.1000 310.0000 1.0000
56.1100 325.0000 1.0000
56.1200 315.0000 1.0000
56.1300 343.0000 1.0000
56.1400 327.0000 1.0000
56.1500 348.0000 1.0000
56.1600 332.0000 1.0000
56.1700 306.0000 1.0000
56.1800 325.0000 1.0000
56.1900 301.0000 1.0000
56.2000 334.0000 1.0000
56.2100 325.0000 1.0000
56.2200 330.0000 1.0000
56.2300 328.0000 1.0000
56.2400 329.0000 1.0000
56.2500 293.0000 1.0000
56.2600 306.0000 1.0000
56.2700 325.0000 1.0000
56.2800 333.0000 1.0000
56.2900 317.0000 1.0000
56.3000 326.0000 1.0000
56.3100 316.0000 1.0000
56.3200 313.0000 1.0000
56.3300 320.0000 1.0000
56.3400 306.0000 1.0000
56.3500 291.0000 1.0000
56.3600 320.0000 1.0000
56.3700 320.0000 1.0000
56.3800 314.0000 1.0000
56.3900 338.0000 1.0000
56.4000 337.0000 1.0000
56.4100 312.0000 1.0000
56.4200 308.0000 1.0000
56.4300 293.0000 1.0000
56.4400 335.0000 1.0000
56.4500 312.0000 1.0000
56.4600 310.0000 1.0000
56.4700 324.0000 1.0000
56.4800 308.0000 1.0000
56.4900 313.0000 1.0000
56.5000 328.0000 1.0000
56.5100 303.0000 1.0000
56.5200 295.0000 1.0000
56.5300 325.0000 1.0000
56.5400 338.0000 1.0000
56.5500 325.0000 1.0000
56.5600 338.0000 1.0000
56.5700 331.0000 1.0000
56.5800 332.0000 1.0000
56.5900 332.0000 1.0000
56.6000 314.0000 1.0000
56.6100 296.0000 1.0000
56.6200 294.0000 1.0000
56.6300 325.0000 1.0000
56.6400 316.0000 1.0000
56.6500 315.0000 1.0000
56.6600 314.0000 1.0000
56.6700 292.0000 1.0000
56.6800 294.0000 1.0000
56.6900 321.0000 1.0000
56.7000 317.0000 1.0000
56.7100 320.0000 1.0000
56.7200 346.0000 1.0000
56.7300 326.0000 1.0000
56.7400 295.0000 1.0000
56.7500 284.0000 1.0000
56.7600 304.0000 1.0000
56.7700 321.0000 1.0000
56.7800 320.0000 1.0000
56.7900 305.0000 1.0000
56.8000 334.0000 1.0000
56.8100 342.0000 1.0000
56.8200 333.0000 1.0000
56.8300 292.0000 1.0000
56.8400 302.0000 1.0000
56.8500 313.0000 1.0000
56.8600 323.0000 1.0000
56.8700 307.0000 1.0000
56.8800 297.0000 1.0000
56.8900 346.0000 1.0000
56.9000 353.0000 1.0000
56.9100 318.0000 1.0000
56.9200 336.0000 1.0000
56.9300 326.0000 1.0000
56.9400 338.0000 1.0000
56.9500 353.0000 1.0000
56.9600 307.0000 1.0000
56.9700 336.0000 1.0000
56.9800 312.0000 1.0000
56.9900 291.0000 1.0000
57.0000 308.0000 1.0000
57.0100 355.0000 1.0000
57.0200 336.0000 1.0000
57.0300 311.0000 1.0000
57.0400 317.0000 1.0000
57.0500 348.0000 1.0000
57.0600 310.0000 1.0000
57.0700 312.0000 1.0000
57.0800 323.0000 1.0000
57.0900 309.0000 1.0000
57.1000 329.0000 1.0000
57.1100 306.0000 1.0000
57.1200 322.0000 1.0000
57.1300 305.0000 1.0000
57.1400 329.0000 1.0000
57.1500 300.0000 1.0000
57.1600 317.0000 1.0000
57.1700 278.0000 1.0000
57.1800 302.0000 1.0000
57.1900 281.0000 1.0000
57.2000 316.0000 1.0000
57.2100 326.0000 1.0000
57.2200 318.0000 1.0000
57.2300 325.0000 1.0000
57.2400 343.0000 1.0000
57.2500 332.0000 1.0000
57.2600 330.0000 1.0000
57.2700 327.0000 1.0000
57.2800 337.0000 1.0000
57.2900 326.0000 1.0000
57.3000 339.0000 1.0000
57.3100 339.0000 1.0000
57.3200 346.0000 1.0000
57.3300 317.0000 1.0000
57.3400 338.0000 1.0000
57.3500 352.0000 1.0000
57.3600 315.0000 1.0000
57.3700 338.0000 1.0000
57.3800 311.0000 1.0000
57.3900 328.0000 1.0000
57.4000 365.0000 1.0000
57.4100 325.0000 1.0000
57.4200 344.0000 1.0000
57.4300 341.0000 1.0000
57.4400 321.0000 1.0000
57.4500 334.0000 1.0000
57.4600 304.0000 1.0000
57.4700 346.0000 1.0000
57.4800 333.0000 1.0000
57.4900 292.0000 1.0000
57.5000 329.0000 1.0000
57.5100 345.0000 1.0000
57.5200 342.0000 1.0000
57.5300 331.0000 1.0000
57.5400 333.0000 1.0000
57.5500 330.0000 1.0000
57.5600 343.0000 1.0000
57.5700 379.0000 1.0000
57.5800 332.0000 1.0000
57.5900 337.0000 1.0000
57.6000 360.0000 1.0000
57.6100 300.0000 1.0000
57.6200 325.0000 1.0000
57.6300 343.0000 1.0000
57.6400 309.0000 1.0000
57.6500 326.0000 1.0000
57.6600 345.0000 1.0000
57.6700 305.0000 1.0000
57.6800 309.0000 1.0000
57.6900 307.0000 1.0000
57.7000 282.0000 1.0000
57.7100 321.0000 1.0000
57.7200 330.0000 1.0000
57.7300 308.0000 1.0000
57.7400 310.0000 1.0000
57.7500 353.0000 1.0000
57.7600 342.0000 1.0000
57.7700 322.0000 1.0000
57.7800 335.0000 1.0000
57.7900 298.0000 1.0000
57.8000 312.0000 1.0000
57.8100 342.0000 1.0000
57.8200 307.0000 1.0000
57.8300 302.0000 1.0000
57.8400 320.0000 1.0000
57.8500 316.0000 1.0000
57.8600 323.0000 1.0000
57.8700 307.0000 1.0000
57.8800 288.0000 1.0000
57.8900 310.0000 1.0000
57.9000 324.0000 1.0000
57.9100 341.0000 1.0000
57.9200 306.0000 1.0000
57.9300 304.0000 1.0000
57.9400 334.0000 1.0000
57.9500 305.0000 1.0000
57.9600 288.0000 1.0000
57.9700 311.0000 1.0000
57.9800 318.0000 1.0000
57.9900 287.0000 1.0000
58.0000 290.0000 1.0000
58.0100 300.0000 1.0000
58.0200 290.0000 1.0000
58.0300 306.0000 1.0000
58.0400 309.0000 1.0000
58.0500 324.0000 1.0000
58.0600 317.0000 1.0000
58.0700 307.0000 1.0000
58.0800 306.0000 1.0000
58.0900 322.0000 1.0000
58.1000 312.0000 1.0000
58.1100 338.0000 1.0000
58.1200 315.0000 1.0000
58.1300 322.0000 1.0000
58.1400 323.0000 1.0000
58.1500 304.0000 1.0000
58.1600 292.0000 1.0000
58.1700 333.0000 1.0000
58.1800 317.0000 1.0000
58.1900 262.0000 1.0000
58.2000 333.0000 1.0000
58.2100 313.0000 1.0000
58.2200 299.0000 1.0000
58.2300 295.0000 1.0000
58.2400 288.0000 1.0000
58.2500 302.0000 1.0000
58.2600 301.0000 1.0000
58.2700 322.0000 1.0000
58.2800 296.0000 1.0000
58.2900 312.0000 1.0000
58.3000 330.0000 1.0000
58.3100 299.0000 1.0000
58.3200 309.0000 1.0000
58.3300 304.0000 1.0000
58.3400 309.0000 1.0000
58.3500 309.0000 1.0000
58.3600 328.0000 1.0000
58.3700 302.0000 1.0000
58.3800 329.0000 1.0000
58.3900 305.0000 1.0000
58.4000 321.0000 1.0000
58.4100 340.0000 1.0000
58.4200 279.0000 1.0000
58.4300 314.0000 1.0000
58.4400 333.0000 1.0000
58.4500 324.0000 1.0000
58.4600 317.0000 1.0000
58.4700 310.0000 1.0000
58.4800 314.0000 1.0000
58.4900 313.0000 1.0000
58.5000 295.0000 1.0000
58.5100 315.0000 1.0000
58.5200 320.0000 1.0000
58.5300 292.0000 1.0000
58.5400 318.0000 1.0000
58.5500 349.0000 1.0000
58.5600 329.0000 1.0000
58.5700 317.0000 1.0000
58.5800 296.0000 1.0000
58.5900 304.0000 1.0000
58.6000 329.0000 1.0000
58.6100 295.0000 1.0000
58.6200 312.0000 1.0000
58.6300 339.0000 1.0000
58.6400 353.0000 1.0000
58.6500 292.0000 1.0000
58.6600 309.0000 1.0000
58.6700 329.0000 1.0000
58.6800 312.0000 1.0000
58.6900 319.0000 1.0000
58.7000 306.0000 1.0000
58.7100 297.0000 1.0000
58.7200 304.0000 1.0000
58.7300 310.0000 1.0000
58.7400 320.0000 1.0000
58.7500 337.0000 1.0000
58.7600 289.0000 1.0000
58.7700 301.0000 1.0000
58.7800 312.0000 1.0000
58.7900 321.0000 1.0000
58.8000 332.0000 1.0000
58.8100 300.0000 1.0000
58.8200 285.0000 1.0000
58.8300 306.0000 1.0000
58.8400 300.0000 1.0000
58.8500 311.0000 1.0000
58.8600 315.0000 1.0000
58.8700 330.0000 1.0000
58.8800 307.0000 1.0000
58.8900 300.0000 1.0000
58.9000 321.0000 1.0000
58.9100 312.0000 1.0000
58.9200 302.0000 1.0000
58.9300 313.0000 1.0000
58.9400 293.0000 1.0000
58.9500 319.0000 1.0000
58.9600 298.0000 1.0000
58.9700 317.0000 1.0000
58.9800 301.0000 1.0000
58.9900 306.0000 1.0000
59.0000 307.0000 1.0000
59.0100 318.0000 1.0000
59.0200 328.0000 1.0000
59.0300 305.0000 1.0000
59.0400 295.0000 1.0000
59.0500 338.0000 1.0000
59.0600 325.0000 1.0000
59.0700 343.0000 1.0000
59.0800 355.0000 1.0000
59.0900 287.0000 1.0000
59.1000 322.0000 1.0000
59.1100 301.0000 1.0000
59.1200 311.0000 1.0000
59.1300 282.0000 1.0000
59.1400 313.0000 1.0000
59.1500 289.0000 1.0000
59.1600 315.0000 1.0000
59.1700 311.0000 1.0000
59.1800 322.0000 1.0000
59.1900 291.0000 1.0000
59.2000 316.0000 1.0000
59.2100 306.0000 1.0000
59.2200 328.0000 1.0000
59.2300 301.0000 1.0000
59.2400 291.0000 1.0000
59.2500 281.0000 1.0000
59.2600 280.0000 1.0000
59.2700 312.0000 1.0000
59.2800 328.0000 1.0000
59.2900 291.0000 1.0000
59.3000 312.0000 1.0000
59.3100 327.0000 1.0000
59.3200 324.0000 1.0000
59.3300 301.0000 1.0000
59.3400 301.0000 1.0000
59.3500 307.0000 1.0000
59.3600 305.0000 1.0000
59.3700 312.0000 1.0000
59.3800 316.0000 1.0000
59.3900 336.0000 1.0000
59.4000 342.0000 1.0000
59.4100 281.0000 1.0000
59.4200 283.0000 1.0000
59.4300 293.0000 1.0000
59.4400 300.0000 1.0000
59.4500 323.0000 1.0000
59.4600 321.0000 1.0000
59.4700 330.0000 1.0000
59.4800 327.0000 1.0000
59.4900 335.0000 1.0000
59.5000 304.0000 1.0000
59.5100 319.0000 1.0000
59.5200 316.0000 1.0000
59.5300 311.0000 1.0000
59.5400 324.0000 1.0000
59.5500 320.0000 1.0000
59.5600 319.0000 1.0000
59.5700 313.0000 1.0000
59.5800 303.0000 1.0000
59.5900 288.0000 1.0000
59.6000 311.0000 1.0000
59.6100 297.0000 1.0000
59.6200 311.0000 1.0000
59.6300 321.0000 1.0000
59.6400 327.0000 1.0000
59.6500 303.0000 1.0000
59.6600 313.0000 1.0000
59.6700 308.0000 1.0000
59.6800 326.0000 1.0000
59.6900 302.0000 1.0000
59.7000 305.0000 1.0000
59.7100 324.0000 1.0000
59.7200 328.0000 1.0000
59.7300 297.0000 1.0000
59.7400 298.0000 1.0000
59.7500 322.0000 1.0000
59.7600 308.0000 1.0000
59.7700 298.0000 1.0000
59.7800 318.0000 1.0000
59.7900 319.0000 1.0000
59.8000 311.0000 1.0000
59.8100 296.0000 1.0000
59.8200 319.0000 1.0000
59.8300 289.0000 1.0000
59.8400 277.0000 1.0000
59.8500 304.0000 1.0000
59.8600 325.0000 1.0000
59.8700 290.0000 1.0000
59.8800 311.0000 1.0000
59.8900 344.0000 1.0000
59.9000 292.0000 1.0000
59.9100 309.0000 1.0000
59.9200 313.0000 1.0000
59.9300 295.0000 1.0000
59.9400 312.0000 1.0000
59.9500 317.0000 1.0000
59.9600 324.0000 1.0000
59.9700 323.0000 1.0000
59.9800 321.0000 1.0000
59.9900 353.0000 1.0000
60.0000 330.0000 1.0000
60.0100 306.0000 1.0000
60.0200 297.0000 1.0000
60.0300 326.0000 1.0000
60.0400 326.0000 1.0000
60.0500 306.0000 1.0000
60.0600 305.0000 1.0000
60.0700 314.0000 1.0000
60.0800 310.0000 1.0000
60.0900 327.0000 1.0000
60.1000 331.0000 1.0000
60.1100 308.0000 1.0000
60.1200 339.0000 1.0000
60.1300 315.0000 1.0000
60.1400 317.0000 1.0000
60.1500 311.0000 1.0000
60.1600 312.0000 1.0000
60.1700 338.0000 1.0000
60.1800 288.0000 1.0000
60.1900 327.0000 1.0000
60.2000 357.0000 1.0000
60.2100 332.0000 1.0000
60.2200 313.0000 1.0000
60.2300 276.0000 1.0000
60.2400 314.0000 1.0000
60.2500 299.0000 1.0000
60.2600 304.0000 1.0000
60.2700 316.0000 1.0000
60.2800 319.0000 1.0000
60.2900 324.0000 1.0000
60.3000 317.0000 1.0000
60.3100 296.0000 1.0000
60.3200 282.0000 1.0000
60.3300 320.0000 1.0000
60.3400 327.0000 1.0000
60.3500 345.0000 1.0000
60.3600 324.0000 1.0000
60.3700 321.0000 1.0000
60.3800 303.0000 1.0000
60.3900 307.0000 1.0000
60.4000 279.0000 1.0000
60.4100 301.0000 1.0000
60.4200 300.0000 1.0000
60.4300 298.0000 1.0000
60.4400 308.0000 1.0000
60.4500 322.0000 1.0000
60.4600 296.0000 1.0000
60.4700 301.0000 1.0000
60.4800 298.0000 1.0000
60.4900 305.0000 1.0000
60.5000 279.0000 1.0000
60.5100 297.0000 1.0000
60.5200 320.0000 1.0000
60.5300 329.0000 1.0000
60.5400 316.0000 1.0000
60.5500 286.0000 1.0000
60.5600 303.0000 1.0000
60.5700 284.0000 1.0000
60.5800 330.0000 1.0000
60.5900 337.0000 1.0000
60.6000 311.0000 1.0000
60.6100 305.0000 1.0000
60.6200 330.0000 1.0000
60.6300 312.0000 1.0000
60.6400 333.0000 1.0000
60.6500 295.0000 1.0000
60.6600 322.0000 1.0000
60.6700 322.0000 1.0000
60.6800 325.0000 1.0000
60.6900 332.0000 1.0000
60.7000 328.0000 1.0000
60.7100 300.0000 1.0000
60.7200 316.0000 1.0000
60.7300 278.0000 1.0000
60.7400 338.0000 1.0000
60.7500 298.0000 1.0000
60.7600 309.0000 1.0000
60.7700 293.0000 1.0000
60.7800 328.0000 1.0000
60.7900 322.0000 1.0000
60.8000 299.0000 1.0000
60.8100 337.0000 1.0000
60.8200 309.0000 1.0000
60.8300 303.0000 1.0000
60.8400 316.0000 1.0000
60.8500 317.0000 1.0000
60.8600 316.0000 1.0000
60.8700 303.0000 1.0000
60.8800 318.0000 1.0000
60.8900 326.0000 1.0000
60.9000 317.0000 1.0000
60.9100 308.0000 1.0000
60.9200 319.0000 1.0000
60.9300 316.0000 1.0000
60.9400 321.0000 1.0000
60.9500 343.0000 1.0000
60.9600 341.0000 1.0000
60.9700 323.0000 1.0000
60.9800 335.0000 1.0000
60.9900 314.0000 1.0000
61.0000 329.0000 1.0000
61.0100 335.0000 1.0000
61.0200 318.0000 1.0000
61.0300 329.0000 1.0000
61.0400 334.0000 1.0000
61.0500 336.0000 1.0000
61.0600 344.0000 1.0000
61.0700 316.0000 1.0000
61.0800 329.0000 1.0000
61.0900 314.0000 1.0000
61.1000 335.0000 1.0000
61.1100 346.0000 1.0000
61.1200 321.0000 1.0000
61.1300 345.0000 1.0000
61.1400 327.0000 1.0000
61.1500 350.0000 1.0000
61.1600 355.0000 1.0000
61.1700 348.0000 1.0000
61.1800 355.0000 1.0000
61.1900 341.0000 1.0000
61.2000 330.0000 1.0000
61.2100 365.0000 1.0000
61.2200 371.0000 1.0000
61.2300 356.0000 1.0000
61.2400 347.0000 1.0000
61.2500 358.0000 1.0000
61.2600 369.0000 1.0000
61.2700 355.0000 1.0000
61.2800 370.0000 1.0000
61.2900 384.0000 1.0000
61.3000 352.0000 1.0000
61.3100 402.0000 1.0000
61.3200 423.0000 1.0000
61.3300 452.0000 1.0000
61.3400 436.0000 1.0000
61.3500 444.0000 1.0000
61.3600 458.0000 1.0000
61.3700 479.0000 1.0000
61.3800 488.0000 1.0000
61.3900 499.0000 1.0000
61.4000 441.0000 1.0000
61.4100 517.0000 1.0000
61.4200 487.0000 1.0000
61.4300 525.0000 1.0000
61.4400 535.0000 1.0000
61.4500 513.0000 1.0000
61.4600 529.0000 1.0000
61.4700 542.0000 1.0000
61.4800 578.0000 1.0000
61.4900 550.0000 1.0000
61.5000 553.0000 1.0000
61.5100 589.0000 1.0000
61.5200 585.0000 1.0000
61.5300 585.0000 1.0000
61.5400 595.0000 1.0000
61.5500 583.0000 1.0000
61.5600 571.0000 1.0000
61.5700 611.0000 1.0000
61.5800 590.0000 1.0000
61.5900 610.0000 1.0000
61.6000 606.0000 1.0000
61.6100 596.0000 1.0000
61.6200 559.0000 1.0000
61.6300 576.0000 1.0000
61.6400 592.0000 1.0000
61.6500 590.0000 1.0000
61.6600 537.0000 1.0000
61.6700 537.0000 1.0000
61.6800 544.0000 1.0000
61.6900 527.0000 1.0000
61.7000 514.0000 1.0000
61.7100 504.0000 1.0000
61.7200 517.0000 1.0000
61.7300 511.0000 1.0000
61.7400 488.0000 1.0000
61.7500 479.0000 1.0000
61.7600 486.0000 1.0000
61.7700 484.0000 1.0000
61.7800 477.0000 1.0000
61.7900 424.0000 1.0000
61.8000 413.0000 1.0000
61.8100 418.0000 1.0000
61.8200 422.0000 1.0000
61.8300 405.0000 1.0000
61.8400 408.0000 1.0000
61.8500 442.0000 1.0000
61.8600 409.0000 1.0000
61.8700 428.0000 1.0000
61.8800 403.0000 1.0000
61.8900 372.0000 1.0000
61.9000 384.0000 1.0000
61.9100 392.0000 1.0000
61.9200 340.0000 1.0000
61.9300 375.0000 1.0000
61.9400 369.0000 1.0000
61.9500 370.0000 1.0000
61.9600 397.0000 1.0000
61.9700 365.0000 1.0000
61.9800 377.0000 1.0000
61.9900 368.0000 1.0000
62.0000 369.0000 1.0000
62.0100 371.0000 1.0000
62.0200 356.0000 1.0000
62.0300 328.0000 1.0000
62.0400 332.0000 1.0000
62.0500 343.0000 1.0000
62.0600 370.0000 1.0000
62.0700 336.0000 1.0000
62.0800 334.0000 1.0000
62.0900 341.0000 1.0000
62.1000 343.0000 1.0000
62.1100 344.0000 1.0000
62.1200 345.0000 1.0000
62.1300 349.0000 1.0000
62.1400 358.0000 1.0000
62.1500 304.0000 1.0000
62.1600 344.0000 1.0000
62.1700 345.0000 1.0000
62.1800 328.0000 1.0000
62.1900 346.0000 1.0000
62.2000 345.0000 1.0000
62.2100 349.0000 1.0000
62.2200 306.0000 1.0000
62.2300 334.0000 1.0000
62.2400 354.0000 1.0000
62.2500 329.0000 1.0000
62.2600 333.0000 1.0000
62.2700 374.0000 1.0000
62.2800 346.0000 1.0000
62.2900 348.0000 1.0000
62.3000 359.0000 1.0000
62.3100 350.0000 1.0000
62.3200 380.0000 1.0000
62.3300 363.0000 1.0000
62.3400 376.0000 1.0000
62.3500 415.0000 1.0000
62.3600 387.0000 1.0000
62.3700 356.0000 1.0000
62.3800 407.0000 1.0000
62.3900 396.0000 1.0000
62.4000 374.0000 1.0000
62.4100 422.0000 1.0000
62.4200 357.0000 1.0000
62.4300 360.0000 1.0000
62.4400 360.0000 1.0000
62.4500 372.0000 1.0000
62.4600 349.0000 1.0000
62.4700 356.0000 1.0000
62.4800 346.0000 1.0000
62.4900 362.0000 1.0000
62.5000 375.0000 1.0000
62.5100 379.0000 1.0000
62.5200 373.0000 1.0000
62.5300 377.0000 1.0000
62.5400 352.0000 1.0000
62.5500 353.0000 1.0000
62.5600 348.0000 1.0000
62.5700 358.0000 1.0000
62.5800 349.0000 1.0000
62.5900 373.0000 1.0000
62.6000 339.0000 1.0000
62.6100 334.0000 1.0000
62.6200 320.0000 1.0000
62.6300 295.0000 1.0000
62.6400 330.0000 1.0000
62.6500 323.0000 1.0000
62.6600 311.0000 1.0000
62.6700 335.0000 1.0000
62.6800 322.0000 1.0000
62.6900 324.0000 1.0000
62.7000 300.0000 1.0000
62.7100 318.0000 1.0000
62.7200 350.0000 1.0000
62.7300 329.0000 1.0000
62.7400 308.0000 1.0000
62.7500 329.0000 1.0000
62.7600 349.0000 1.0000
62.7700 325.0000 1.0000
62.7800 312.0000 1.0000
62.7900 326.0000 1.0000
62.8000 309.0000 1.0000
62.8100 308.0000 1.0000
62.8200 310.0000 1.0000
62.8300 309.0000 1.0000
62.8400 331.0000 1.0000
62.8500 318.0000 1.0000
62.8600 296.0000 1.0000
62.8700 338.0000 1.0000
62.8800 324.0000 1.0000
62.8900 297.0000 1.0000
62.9000 307.0000 1.0000
62.9100 312.0000 1.0000
62.9200 286.0000 1.0000
62.9300 329.0000 1.0000
62.9400 326.0000 1.0000
62.9500 319.0000 1.0000
62.9600 333.0000 1.0000
62.9700 299.0000 1.0000
62.9800 315.0000 1.0000
62.9900 299.0000 1.0000
63.0000 308.0000 1.0000
63.0100 346.0000 1.0000
63.0200 307.0000 1.0000
63.0300 302.0000 1.0000
63.0400 286.0000 1.0000
63.0500 331.0000 1.0000
63.0600 279.0000 1.0000
63.0700 311.0000 1.0000
63.0800 321.0000 1.0000
63.0900 300.0000 1.0000
63.1000 303.0000 1.0000
63.1100 322.0000 1.0000
63.1200 282.0000 1.0000
63.1300 321.0000 1.0000
63.1400 300.0000 1.0000
63.1500 317.0000 1.0000
63.1600 315.0000 1.0000
63.1700 297.0000 1.0000
63.1800 313.0000 1.0000
63.1900 314.0000 1.0000
63.2000 305.0000 1.0000
63.2100 313.0000 1.0000
63.2200 285.0000 1.0000
63.2300 300.0000 1.0000
63.2400 318.0000 1.0000
63.2500 318.0000 1.0000
63.2600 300.0000 1.0000
63.2700 312.0000 1.0000
63.2800 306.0000 1.0000
63.2900 298.0000 1.0000
63.3000 325.0000 1.0000
63.3100 314.0000 1.0000
63.3200 319.0000 1.0000
63.3300 307.0000 1.0000
63.3400 293.0000 1.0000
63.3500 318.0000 1.0000
63.3600 320.0000 1.0000
63.3700 309.0000 1.0000
63.3800 299.0000 1.0000
63.3900 300.0000 1.0000
63.4000 309.0000 1.0000
63.4100 313.0000 1.0000
63.4200 331.0000 1.0000
63.4300 320.0000 1.0000
63.4400 293.0000 1.0000
63.4500 323.0000 1.0000
63.4600 313.0000 1.0000
63.4700 297.0000 1.0000
63.4800 309.0000 1.0000
63.4900 308.0000 1.0000
63.5000 312.0000 1.0000
63.5100 315.0000 1.0000
63.5200 291.0000 1.0000
63.5300 315.0000 1.0000
63.5400 288.0000 1.0000
63.5500 301.0000 1.0000
63.5600 321.0000 1.0000
63.5700 322.0000 1.0000
63.5800 321.0000 1.0000
63.5900 317.0000 1.0000
63.6000 309.0000 1.0000
63.6100 339.0000 1.0000
63.6200 319.0000 1.0000
63.6300 312.0000 1.0000
63.6400 312.0000 1.0000
63.6500 325.0000 1.0000
63.6600 334.0000 1.0000
63.6700 318.0000 1.0000
63.6800 338.0000 1.0000
63.6900 341.0000 1.0000
63.7000 333.0000 1.0000
63.7100 347.0000 1.0000
63.7200 340.0000 1.0000
63.7300 363.0000 1.0000
63.7400 349.0000 1.0000
63.7500 319.0000 1.0000
63.7600 358.0000 1.0000
63.7700 368.0000 1.0000
63.7800 382.0000 1.0000
63.7900 369.0000 1.0000
63.8000 354.0000 1.0000
63.8100 372.0000 1.0000
63.8200 393.0000 1.0000
63.8300 370.0000 1.0000
63.8400 405.0000 1.0000
63.8500 400.0000 1.0000
63.8600 405.0000 1.0000
63.8700 429.0000 1.0000
63.8800 440.0000 1.0000
63.8900 547.0000 1.0000
63.9000 486.0000 1.0000
63.9100 517.0000 1.0000
63.9200 533.0000 1.0000
63.9300 551.0000 1.0000
63.9400 523.0000 1.0000
63.9500 560.0000 1.0000
63.9600 521.0000 1.0000
63.9700 513.0000 1.0000
63.9800 513.0000 1.0000
63.9900 497.0000 1.0000
64.0000 480.0000 1.0000
64.0100 470.0000 1.0000
64.0200 476.0000 1.0000
64.0300 456.0000 1.0000
64.0400 469.0000 1.0000
64.0500 454.0000 1.0000
64.0600 451.0000 1.0000
64.0700 443.0000 1.0000
64.0800 471.0000 1.0000
64.0900 451.0000 1.0000
64.1000 471.0000 1.0000
64.1100 456.0000 1.0000
64.1200 455.0000 1.0000
64.1300 462.0000 1.0000
64.1400 447.0000 1.0000
64.1500 424.0000 1.0000
64.1600 433.0000 1.0000
64.1700 418.0000 1.0000
64.1800 382.0000 1.0000
64.1900 376.0000 1.0000
64.2000 396.0000 1.0000
64.2100 391.0000 1.0000
64.2200 360.0000 1.0000
64.2300 411.0000 1.0000
64.2400 373.0000 1.0000
64.2500 350.0000 1.0000
64.2600 371.0000 1.0000
64.2700 351.0000 1.0000
64.2800 355.0000 1.0000
64.2900 338.0000 1.0000
64.3000 342.0000 1.0000
64.3100 342.0000 1.0000
64.3200 314.0000 1.0000
64.3300 339.0000 1.0000
64.3400 347.0000 1.0000
64.3500 326.0000 1.0000
64.3600 339.0000 1.0000
64.3700 336.0000 1.0000
64.3800 344.0000 1.0000
64.3900 350.0000 1.0000
64.4000 341.0000 1.0000
64.4100 331.0000 1.0000
64.4200 342.0000 1.0000
64.4300 347.0000 1.0000
64.4400 327.0000 1.0000
64.4500 335.0000 1.0000
64.4600 326.0000 1.0000
64.4700 328.0000 1.0000
64.4800 353.0000 1.0000
64.4900 318.0000 1.0000
64.5000 329.0000 1.0000
64.5100 348.0000 1.0000
64.5200 302.0000 1.0000
64.5300 339.0000 1.0000
64.5400 309.0000 1.0000
64.5500 327.0000 1.0000
64.5600 315.0000 1.0000
64.5700 316.0000 1.0000
64.5800 300.0000 1.0000
64.5900 318.0000 1.0000
64.6000 318.0000 1.0000
64.6100 316.0000 1.0000
64.6200 317.0000 1.0000
64.6300 317.0000 1.0000
64.6400 329.0000 1.0000
64.6500 308.0000 1.0000
64.6600 292.0000 1.0000
64.6700 330.0000 1.0000
64.6800 351.0000 1.0000
64.6900 317.0000 1.0000
64.7000 316.0000 1.0000
64.7100 286.0000 1.0000
64.7200 331.0000 1.0000
64.7300 316.0000 1.0000
64.7400 303.0000 1.0000
64.7500 319.0000 1.0000
64.7600 329.0000 1.0000
64.7700 311.0000 1.0000
64.7800 296.0000 1.0000
64.7900 326.0000 1.0000
64.8000 300.0000 1.0000
64.8100 300.0000 1.0000
64.8200 310.0000 1.0000
64.8300 324.0000 1.0000
64.8400 321.0000 1.0000
64.8500 342.0000 1.0000
64.8600 353.0000 1.0000
64.8700 351.0000 1.0000
64.8800 314.0000 1.0000
64.8900 326.0000 1.0000
64.9000 301.0000 1.0000
64.9100 306.0000 1.0000
64.9200 310.0000 1.0000
64.9300 299.0000 1.0000
64.9400 313.0000 1.0000
64.9500 311.0000 1.0000
64.9600 318.0000 1.0000
64.9700 338.0000 1.0000
64.9800 323.0000 1.0000
64.9900 344.0000 1.0000
65.0000 333.0000 1.0000
65.0100 321.0000 1.0000
65.0200 326.0000 1.0000
65.0300 353.0000 1.0000
65.0400 344.0000 1.0000
65.0500 342.0000 1.0000
65.0600 327.0000 1.0000
65.0700 354.0000 1.0000
65.0800 312.0000 1.0000
65.0900 314.0000 1.0000
65.1000 341.0000 1.0000
65.1100 344.0000 1.0000
65.1200 363.0000 1.0000
65.1300 357.0000 1.0000
65.1400 386.0000 1.0000
65.1500 351.0000 1.0000
65.1600 375.0000 1.0000
65.1700 377.0000 1.0000
65.1800 337.0000 1.0000
65.1900 361.0000 1.0000
65.2000 376.0000 1.0000
65.2100 391.0000 1.0000
65.2200 402.0000 1.0000
65.2300 386.0000 1.0000
65.2400 381.0000 1.0000
65.2500 425.0000 1.0000
65.2600 445.0000 1.0000
65.2700 419.0000 1.0000
65.2800 450.0000 1.0000
65.2900 454.0000 1.0000
65.3000 457.0000 1.0000
65.3100 462.0000 1.0000
65.3200 483.0000 1.0000
65.3300 500.0000 1.0000
65.3400 530.0000 1.0000
65.3500 544.0000 1.0000
65.3600 548.0000 1.0000
65.3700 576.0000 1.0000
65.3800 586.0000 1.0000
65.3900 587.0000 1.0000
65.4000 662.0000 1.0000
65.4100 637.0000 1.0000
65.4200 694.0000 1.0000
65.4300 674.0000 1.0000
65.4400 709.0000 1.0000
65.4500 728.0000 1.0000
65.4600 827.0000 1.0000
65.4700 876.0000 1.0000
65.4800 889.0000 1.0000
65.4900 867.0000 1.0000
65.5000 969.0000 1.0000
65.5100 954.0000 1.0000
65.5200 988.0000 1.0000
65.5300 1029.0000 1.0000
65.5400 1005.0000 1.0000
65.5500 974.0000 1.0000
65.5600 972.0000 1.0000
65.5700 949.0000 1.0000
65.5800 1046.0000 1.0000
65.5900 1047.0000 1.0000
65.6000 1028.0000 1.0000
65.6100 958.0000 1.0000
65.6200 949.0000 1.0000
65.6300 932.0000 1.0000
65.6400 912.0000 1.0000
65.6500 888.0000 1.0000
65.6600 880.0000 1.0000
65.6700 871.0000 1.0000
65.6800 870.0000 1.0000
65.6900 835.0000 1.0000
65.7000 782.0000 1.0000
65.7100 807.0000 1.0000
65.7200 797.0000 1.0000
65.7300 771.0000 1.0000
65.7400 753.0000 1.0000
65.7500 747.0000 1.0000
65.7600 717.0000 1.0000
65.7700 679.0000 1.0000
65.7800 659.0000 1.0000
65.7900 677.0000 1.0000
65.8000 630.0000 1.0000
65.8100 625.0000 1.0000
65.8200 624.0000 1.0000
65.8300 561.0000 1.0000
65.8400 568.0000 1.0000
65.8500 539.0000 1.0000
65.8600 493.0000 1.0000
65.8700 537.0000 1.0000
65.8800 474.0000 1.0000
65.8900 487.0000 1.0000
65.9000 437.0000 1.0000
65.9100 466.0000 1.0000
65.9200 443.0000 1.0000
65.9300 416.0000 1.0000
65.9400 442.0000 1.0000
65.9500 422.0000 1.0000
65.9600 400.0000 1.0000
65.9700 375.0000 1.0000
65.9800 414.0000 1.0000
65.9900 386.0000 1.0000
66.0000 378.0000 1.0000
66.0100 372.0000 1.0000
66.0200 405.0000 1.0000
66.0300 366.0000 1.0000
66.0400 339.0000 1.0000
66.0500 364.0000 1.0000
66.0600 354.0000 1.0000
66.0700 380.0000 1.0000
66.0800 325.0000 1.0000
66.0900 342.0000 1.0000
66.1000 367.0000 1.0000
66.1100 358.0000 1.0000
66.1200 350.0000 1.0000
66.1300 307.0000 1.0000
66.1400 307.0000 1.0000
66.1500 332.0000 1.0000
66.1600 318.0000 1.0000
66.1700 289.0000 1.0000
66.1800 342.0000 1.0000
66.1900 350.0000 1.0000
66.2000 314.0000 1.0000
66.2100 311.0000 1.0000
66.2200 313.0000 1.0000
66.2300 340.0000 1.0000
66.2400 318.0000 1.0000
66.2500 319.0000 1.0000
66.2600 303.0000 1.0000
66.2700 296.0000 1.0000
66.2800 304.0000 1.0000
66.2900 298.0000 1.0000
66.3000 280.0000 1.0000
66.3100 295.0000 1.0000
66.3200 333.0000 1.0000
66.3300 322.0000 1.0000
66.3400 336.0000 1.0000
66.3500 308.0000 1.0000
66.3600 313.0000 1.0000
66.3700 290.0000 1.0000
66.3800 319.0000 1.0000
66.3900 302.0000 1.0000
66.4000 299.0000 1.0000
66.4100 310.0000 1.0000
66.4200 294.0000 1.0000
66.4300 253.0000 1.0000
66.4400 279.0000 1.0000
66.4500 304.0000 1.0000
66.4600 311.0000 1.0000
66.4700 324.0000 1.0000
66.4800 315.0000 1.0000
66.4900 275.0000 1.0000
66.5000 287.0000 1.0000
66.5100 305.0000 1.0000
66.5200 316.0000 1.0000
66.5300 317.0000 1.0000
66.5400 307.0000 1.0000
66.5500 295.0000 1.0000
66.5600 288.0000 1.0000
66.5700 281.0000 1.0000
66.5800 298.0000 1.0000
66.5900 281.0000 1.0000
66.6000 293.0000 1.0000
66.6100 293.0000 1.0000
66.6200 296.0000 1.0000
66.6300 292.0000 1.0000
66.6400 298.0000 1.0000
66.6500 330.0000 1.0000
66.6600 313.0000 1.0000
66.6700 309.0000 1.0000
66.6800 283.0000 1.0000
66.6900 271.0000 1.0000
66.7000 330.0000 1.0000
66.7100 283.0000 1.0000
66.7200 295.0000 1.0000
66.7300 305.0000 1.0000
66.7400 276.0000 1.0000
66.7500 286.0000 1.0000
66.7600 270.0000 1.0000
66.7700 296.0000 1.0000
66.7800 274.0000 1.0000
66.7900 285.0000 1.0000
66.8000 287.0000 1.0000
66.8100 283.0000 1.0000
66.8200 302.0000 1.0000
66.8300 305.0000 1.0000
66.8400 315.0000 1.0000
66.8500 295.0000 1.0000
66.8600 310.0000 1.0000
66.8700 293.0000 1.0000
66.8800 285.0000 1.0000
66.8900 261.0000 1.0000
66.9000 286.0000 1.0000
66.9100 276.0000 1.0000
66.9200 275.0000 1.0000
66.9300 284.0000 1.0000
66.9400 271.0000 1.0000
66.9500 266.0000 1.0000
66.9600 289.0000 1.0000
66.9700 286.0000 1.0000
66.9800 304.0000 1.0000
66.9900 275.0000 1.0000
67.0000 265.0000 1.0000
67.0100 272.0000 1.0000
67.0200 307.0000 1.0000
67.0300 299.0000 1.0000
67.0400 287.0000 1.0000
67.0500 270.0000 1.0000
67.0600 266.0000 1.0000
67.0700 275.0000 1.0000
67.0800 283.0000 1.0000
67.0900 306.0000 1.0000
67.1000 295.0000 1.0000
67.1100 298.0000 1.0000
67.1200 300.0000 1.0000
67.1300 293.0000 1.0000
67.1400 295.0000 1.0000
67.1500 275.0000 1.0000
67.1600 300.0000 1.0000
67.1700 303.0000 1.0000
67.1800 311.0000 1.0000
67.1900 309.0000 1.0000
67.2000 294.0000 1.0000
67.2100 280.0000 1.0000
67.2200 283.0000 1.0000
67.2300 293.0000 1.0000
67.2400 281.0000 1.0000
67.2500 279.0000 1.0000
67.2600 294.0000 1.0000
67.2700 286.0000 1.0000
67.2800 289.0000 1.0000
67.2900 292.0000 1.0000
67.3000 280.0000 1.0000
67.3100 287.0000 1.0000
67.3200 269.0000 1.0000
67.3300 295.0000 1.0000
67.3400 310.0000 1.0000
67.3500 288.0000 1.0000
67.3600 307.0000 1.0000
67.3700 313.0000 1.0000
67.3800 257.0000 1.0000
67.3900 276.0000 1.0000
67.4000 291.0000 1.0000
67.4100 322.0000 1.0000
67.4200 299.0000 1.0000
67.4300 302.0000 1.0000
67.4400 276.0000 1.0000
67.4500 265.0000 1.0000
67.4600 279.0000 1.0000
67.4700 305.0000 1.0000
67.4800 276.0000 1.0000
67.4900 256.0000 1.0000
67.5000 290.0000 1.0000
67.5100 283.0000 1.0000
67.5200 285.0000 1.0000
67.5300 272.0000 1.0000
67.5400 265.0000 1.0000
67.5500 302.0000 1.0000
67.5600 307.0000 1.0000
67.5700 283.0000 1.0000
67.5800 245.0000 1.0000
67.5900 278.0000 1.0000
67.6000 277.0000 1.0000
67.6100 279.0000 1.0000
67.6200 266.0000 1.0000
67.6300 288.0000 1.0000
67.6400 288.0000 1.0000
67.6500 289.0000 1.0000
67.6600 292.0000 1.0000
67.6700 294.0000 1.0000
67.6800 275.0000 1.0000
67.6900 294.0000 1.0000
67.7000 276.0000 1.0000
67.7100 281.0000 1.0000
67.7200 284.0000 1.0000
67.7300 290.0000 1.0000
67.7400 281.0000 1.0000
67.7500 276.0000 1.0000
67.7600 292.0000 1.0000
67.7700 303.0000 1.0000
67.7800 281.0000 1.0000
67.7900 297.0000 1.0000
67.8000 290.0000 1.0000
67.8100 290.0000 1.0000
67.8200 262.0000 1.0000
67.8300 247.0000 1.0000
67.8400 276.0000 1.0000
67.8500 271.0000 1.0000
67.8600 267.0000 1.0000
67.8700 287.0000 1.0000
67.8800 294.0000 1.0000
67.8900 276.0000 1.0000
67.9000 268.0000 1.0000
67.9100 253.0000 1.0000
67.9200 244.0000 1.0000
67.9300 256.0000 1.0000
67.9400 270.0000 1.0000
67.9500 289.0000 1.0000
67.9600 281.0000 1.0000
67.9700 292.0000 1.0000
67.9800 263.0000 1.0000
67.9900 264.0000 1.0000
68.0000 275.0000 1.0000
68.0100 272.0000 1.0000
68.0200 270.0000 1.0000
68.0300 289.0000 1.0000
68.0400 290.0000 1.0000
68.0500 281.0000 1.0000
68.0600 274.0000 1.0000
68.0700 295.0000 1.0000
68.0800 279.0000 1.0000
68.0900 286.0000 1.0000
68.1000 266.0000 1.0000
68.1100 299.0000 1.0000
68.1200 312.0000 1.0000
68.1300 279.0000 1.0000
68.1400 306.0000 1.0000
68.1500 280.0000 1.0000
68.1600 286.0000 1.0000
68.1700 261.0000 1.0000
68.1800 253.0000 1.0000
68.1900 264.0000 1.0000
68.2000 304.0000 1.0000
68.2100 280.0000 1.0000
68.2200 280.0000 1.0000
68.2300 275.0000 1.0000
68.2400 260.0000 1.0000
68.2500 270.0000 1.0000
68.2600 262.0000 1.0000
68.2700 279.0000 1.0000
68.2800 268.0000 1.0000
68.2900 267.0000 1.0000
68.3000 275.0000 1.0000
68.3100 292.0000 1.0000
68.3200 288.0000 1.0000
68.3300 281.0000 1.0000
68.3400 267.0000 1.0000
68.3500 293.0000 1.0000
68.3600 289.0000 1.0000
68.3700 271.0000 1.0000
68.3800 275.0000 1.0000
68.3900 280.0000 1.0000
68.4000 265.0000 1.0000
68.4100 263.0000 1.0000
68.4200 290.0000 1.0000
68.4300 257.0000 1.0000
68.4400 287.0000 1.0000
68.4500 243.0000 1.0000
68.4600 266.0000 1.0000
68.4700 295.0000 1.0000
68.4800 254.0000 1.0000
68.4900 270.0000 1.0000
68.5000 280.0000 1.0000
68.5100 249.0000 1.0000
68.5200 234.0000 1.0000
68.5300 264.0000 1.0000
68.5400 273.0000 1.0000
68.5500 299.0000 1.0000
68.5600 290.0000 1.0000
68.5700 263.0000 1.0000
68.5800 279.0000 1.0000
68.5900 275.0000 1.0000
68.6000 272.0000 1.0000
68.6100 281.0000 1.0000
68.6200 263.0000 1.0000
68.6300 268.0000 1.0000
68.6400 282.0000 1.0000
68.6500 246.0000 1.0000
68.6600 255.0000 1.0000
68.6700 276.0000 1.0000
68.6800 291.0000 1.0000
68.6900 261.0000 1.0000
68.7000 274.0000 1.0000
68.7100 281.0000 1.0000
68.7200 292.0000 1.0000
68.7300 282.0000 1.0000
68.7400 272.0000 1.0000
68.7500 283.0000 1.0000
68.7600 282.0000 1.0000
68.7700 289.0000 1.0000
68.7800 264.0000 1.0000
68.7900 319.0000 1.0000
68.8000 272.0000 1.0000
68.8100 274.0000 1.0000
68.8200 281.0000 1.0000
68.8300 262.0000 1.0000
68.8400 288.0000 1.0000
68.8500 274.0000 1.0000
68.8600 291.0000 1.0000
68.8700 274.0000 1.0000
68.8800 274.0000 1.0000
68.8900 283.0000 1.0000
68.9000 267.0000 1.0000
68.9100 256.0000 1.0000
68.9200 278.0000 1.0000
68.9300 252.0000 1.0000
68.9400 271.0000 1.0000
68.9500 271.0000 1.0000
68.9600 308.0000 1.0000
68.9700 291.0000 1.0000
68.9800 287.0000 1.0000
68.9900 262.0000 1.0000
69.0000 254.0000 1.0000
69.0100 272.0000 1.0000
69.0200 286.0000 1.0000
69.0300 284.0000 1.0000
69.0400 282.0000 1.0000
69.0500 281.0000 1.0000
69.0600 261.0000 1.0000
69.0700 268.0000 1.0000
69.0800 261.0000 1.0000
69.0900 286.0000 1.0000
69.1000 273.0000 1.0000
69.1100 280.0000 1.0000
69.1200 282.0000 1.0000
69.1300 287.0000 1.0000
69.1400 289.0000 1.0000
69.1500 278.0000 1.0000
69.1600 273.0000 1.0000
69.1700 250.0000 1.0000
69.1800 252.0000 1.0000
69.1900 287.0000 1.0000
69.2000 263.0000 1.0000
69.2100 275.0000 1.0000
69.2200 305.0000 1.0000
69.2300 259.0000 1.0000
69.2400 256.0000 1.0000
69.2500 290.0000 1.0000
69.2600 278.0000 1.0000
69.2700 273.0000 1.0000
69.2800 266.0000 1.0000
69.2900 284.0000 1.0000
69.3000 263.0000 1.0000
69.3100 285.0000 1.0000
69.3200 256.0000 1.0000
69.3300 255.0000 1.0000
69.3400 241.0000 1.0000
69.3500 254.0000 1.0000
69.3600 282.0000 1.0000
69.3700 293.0000 1.0000
69.3800 287.0000 1.0000
69.3900 254.0000 1.0000
69.4000 233.0000 1.0000
69.4100 268.0000 1.0000
69.4200 274.0000 1.0000
69.4300 265.0000 1.0000
69.4400 281.0000 1.0000
69.4500 258.0000 1.0000
69.4600 276.0000 1.0000
69.4700 286.0000 1.0000
69.4800 285.0000 1.0000
69.4900 258.0000 1.0000
69.5000 304.0000 1.0000
69.5100 263.0000 1.0000
69.5200 276.0000 1.0000
69.5300 295.0000 1.0000
69.5400 295.0000 1.0000
69.5500 260.0000 1.0000
69.5600 260.0000 1.0000
69.5700 250.0000 1.0000
69.5800 264.0000 1.0000
69.5900 250.0000 1.0000
69.6000 272.0000 1.0000
69.6100 266.0000 1.0000
69.6200 276.0000 1.0000
69.6300 276.0000 1.0000
69.6400 265.0000 1.0000
69.6500 260.0000 1.0000
69.6600 242.0000 1.0000
69.6700 256.0000 1.0000
69.6800 283.0000 1.0000
69.6900 292.0000 1.0000
69.7000 267.0000 1.0000
69.7100 280.0000 1.0000
69.7200 247.0000 1.0000
69.7300 261.0000 1.0000
69.7400 251.0000 1.0000
69.7500 269.0000 1.0000
69.7600 288.0000 1.0000
69.7700 246.0000 1.0000
69.7800 301.0000 1.0000
69.7900 278.0000 1.0000
69.8000 280.0000 1.0000
69.8100 261.0000 1.0000
69.8200 276.0000 1.0000
69.8300 297.0000 1.0000
69.8400 276.0000 1.0000
69.8500 284.0000 1.0000
69.8600 284.0000 1.0000
69.8700 265.0000 1.0000
69.8800 247.0000 1.0000
69.8900 258.0000 1.0000
69.9000 266.0000 1.0000
69.9100 272.0000 1.0000
69.9200 246.0000 1.0000
69.9300 264.0000 1.0000
69.9400 251.0000 1.0000
69.9500 275.0000 1.0000
69.9600 285.0000 1.0000
69.9700 269.0000 1.0000
69.9800 285.0000 1.0000
69.9900 282.0000 1.0000
70.0000 272.0000 1.0000
*RAS_INT_END
*RAS_TEMPERATURE_START
*RAS_TEMPERATURE_END
*RAS_DATA_END
