*RAS_DATA_START
*RAS_HEADER_START
*DISP_FMT_X "%.2f"
*DISP_FMT_Y "%.0f"
*DISP_FULLSCALE "14115.0000000000"
*DISP_LINE_COLOR "255.0000000000"
*DISP_LINE_STYLE "0.0000000000"
*DISP_LINE_WIDTH "0.2500000000"
*DISP_NOTE "測定データ-12"
*DISP_OFFSET_Y "0.0000000000"
*DISP_PEAKSEARCH_UNIT_Y "cps"
*DISP_RANGE_BOTTOM "0.0000000000"
*DISP_RANGE_LEFT "20.0000000000"
*DISP_RANGE_LOGCUTOFF "0.0100000000"
*DISP_RANGE_RIGHT "70.0000000000"
*DISP_RANGE_TOP "14115.0000000000"
*DISP_SCALE_MODE_Y "0.0000000000"
*DISP_TAB_NAME "2θ/θ"
*DISP_TITLE_Y "強度"
*DISP_UNIT_Y "cps"
*DISP_WINDOW_NAME "MSG_MACROENGINE"
*FILE_COMMENT " "
*FILE_MD5 ""
*FILE_MEMO " "
*FILE_OPERATOR "Administrator"
*FILE_SAMPLE " "
*FILE_TYPE "RAS_RAW"
*FILE_USERGROUP "システムマネージャ"
*FILE_VERSION "1.0000000000"
*HW_ATTACHMENT_ID "ATT0025"
*HW_ATTACHMENT_NAME "標準|Standard"
*HW_COUNTER_ID-0 "CUT0025"
*HW_COUNTER_ID-1 "CUT0020"
*HW_COUNTER_ID-2 "CUT0020"
*HW_COUNTER_ID-3 "CSL0021"
*HW_COUNTER_ID-4 "CMC0021"
*HW_COUNTER_NAME-0 "D/teX Ultra|D/teX Ultra"
*HW_COUNTER_NAME-1 "None|None"
*HW_COUNTER_NAME-2 "None|None"
*HW_COUNTER_NAME-3 "BBM|BBM"
*HW_COUNTER_NAME-4 "検出器モノクロメータ|Detector monochromator"
*HW_COUNTER_SELECT_NAME "D/teX Ultra|D/teX Ultra"
*HW_GONIOMETER_ID "GON0023"
*HW_GONIOMETER_NAME "SmartLab|SmartLab"
*HW_GONIOMETER_RADIUS-0 "90.0"
*HW_GONIOMETER_RADIUS-1 "114.0"
*HW_GONIOMETER_RADIUS-2 "190.0"
*HW_GONIOMETER_RADIUS-3 "300.0"
*HW_GONIOMETER_RADIUS-4 "187.0"
*HW_GONIOMETER_RADIUS-5 "300.0"
*HW_GONIOMETER_RADIUS-6 "113.0"
*HW_GONIOMETER_RADIUS-7 "331.0"
*HW_I_OPT_ID-0 "CBO0021"
*HW_I_OPT_ID-1 "ICR0023"
*HW_I_OPT_ID-2 "ISL0021"
*HW_I_OPT_ID-3 "ISO0021"
*HW_I_OPT_ID-4 "IAD0021"
*HW_I_OPT_ID-5 "IPR0001"
*HW_I_OPT_NAME-0 "CBOユニット|CBO unit"
*HW_I_OPT_NAME-1 "標準入射光学ユニット|Standard incident optical unit"
*HW_I_OPT_NAME-2 "標準入射スリットボックス|Standard incident slit box"
*HW_I_OPT_NAME-3 "入射平行スリット|Incident parallel slit"
*HW_I_OPT_NAME-4 "長手制限スリット|Length limiting slit"
*HW_I_OPT_NAME-5 "None|None"
*HW_R_ATTENUATER_AUTOMODE "0"
*HW_R_OPT_ID-0 "RSS0021"
*HW_R_OPT_ID-1 "RCR0023"
*HW_R_OPT_ID-2 "RSO0021"
*HW_R_OPT_ID-3 "RRS0021"
*HW_R_OPT_ID-4 "ATN0021"
*HW_R_OPT_ID-5 "RFL0021"
*HW_R_OPT_ID-6 "RAD0021"
*HW_R_OPT_NAME-0 "標準受光スリットボックス1|Standard receiving slit box # 1"
*HW_R_OPT_NAME-1 "標準受光光学ユニット1|Standard receiving unit # 1"
*HW_R_OPT_NAME-2 "標準受光光学ユニット2|Standard receiving optical unit # 2"
*HW_R_OPT_NAME-3 "標準受光スリットボックス2|Standard receiving slit box # 2"
*HW_R_OPT_NAME-4 "標準アッテネータ|Standard Attenuator"
*HW_R_OPT_NAME-5 "Cu Kβ|Cu K-beta"
*HW_R_OPT_NAME-6 "調整用受光スリット|Alignment receiving slit"
*HW_SAMPLE_HOLDER_ID "SMP0023"
*HW_SAMPLE_HOLDER_NAME "標準Zステージ|Standard Z stage"
*HW_XG_CURRENT_MAX "50"
*HW_XG_CURRENT_MIN "2"
*HW_XG_CURRENT_RESOLUTION "1"
*HW_XG_CURRENT_UNIT "mA"
*HW_XG_FOCUS "1mm x 10mm"
*HW_XG_FOCUS_TYPE "Normal"
*HW_XG_ID ""
*HW_XG_NAME "3kW 封入管(ID:1200)|3kW Sealed tube(ID:1200)"
*HW_XG_TARGET_ATOMIC_NUMBER "29.0000000000"
*HW_XG_TARGET_NAME "Cu"
*HW_XG_TYPE "Hermetic"
*HW_XG_VOLTAGE_MAX "60"
*HW_XG_VOLTAGE_MIN "20"
*HW_XG_VOLTAGE_RESOLUTION "1"
*HW_XG_VOLTAGE_UNIT "kV"
*HW_XG_WATT_MAX "1.500"
*HW_XG_WATT_UNIT "kW"
*HW_XG_WAVE_LENGTH_ALPHA1 "1.540593"
*HW_XG_WAVE_LENGTH_ALPHA2 "1.544414"
*HW_XG_WAVE_LENGTH_BETA "1.392250"
*MEAS_COND_AXIS_NAME-0 "2θ/θ"
*MEAS_COND_AXIS_NAME-1 "2θ"
*MEAS_COND_AXIS_NAME-2 "ω"
*MEAS_COND_AXIS_NAME-3 "Z"
*MEAS_COND_AXIS_NAME-4 "2θ/ω"
*MEAS_COND_AXIS_NAME-5 "θs"
*MEAS_COND_AXIS_NAME-6 "θd"
*MEAS_COND_AXIS_NAME-7 "Ts"
*MEAS_COND_AXIS_NAME-8 "CBO選択スリット"
*MEAS_COND_AXIS_NAME-9 "M"
*MEAS_COND_AXIS_NAME-10 "入射平行スリット"
*MEAS_COND_AXIS_NAME-11 "入射スリット"
*MEAS_COND_AXIS_NAME-12 ""
*MEAS_COND_AXIS_NAME-13 "Zs"
*MEAS_COND_AXIS_NAME-14 "入射光学素子"
*MEAS_COND_AXIS_NAME-15 "長手制限スリット"
*MEAS_COND_AXIS_NAME-16 "センタースリット"
*MEAS_COND_AXIS_NAME-17 "フィルター"
*MEAS_COND_AXIS_NAME-18 "受光スリット1"
*MEAS_COND_AXIS_NAME-19 "受光スリット2"
*MEAS_COND_AXIS_NAME-20 "受光光学素子"
*MEAS_COND_AXIS_NAME-21 "受光平行スリット"
*MEAS_COND_AXIS_NAME-22 "調整用受光スリット"
*MEAS_COND_AXIS_NAME-23 ""
*MEAS_COND_AXIS_NAME-24 ""
*MEAS_COND_AXIS_NAME-25 "Zd"
*MEAS_COND_AXIS_NAME-26 "アッテネータ"
*MEAS_COND_AXIS_NAME-27 "検出器モノクロメータ"
*MEAS_COND_AXIS_NAME-28 "モノクロメータスリット"
*MEAS_COND_AXIS_NAME-29 "プライマリビーム"
*MEAS_COND_AXIS_NAME-30 "PHA"
*MEAS_COND_AXIS_NAME_INTERNAL-0 "TwoThetaTheta"
*MEAS_COND_AXIS_NAME_INTERNAL-1 "TwoTheta"
*MEAS_COND_AXIS_NAME_INTERNAL-2 "Omega"
*MEAS_COND_AXIS_NAME_INTERNAL-3 "Z"
*MEAS_COND_AXIS_NAME_INTERNAL-4 "TwoThetaOmega"
*MEAS_COND_AXIS_NAME_INTERNAL-5 "ThetaS"
*MEAS_COND_AXIS_NAME_INTERNAL-6 "ThetaD"
*MEAS_COND_AXIS_NAME_INTERNAL-7 "Ts"
*MEAS_COND_AXIS_NAME_INTERNAL-8 "CBO"
*MEAS_COND_AXIS_NAME_INTERNAL-9 "CBO-M"
*MEAS_COND_AXIS_NAME_INTERNAL-10 "IncidentSollerSlit"
*MEAS_COND_AXIS_NAME_INTERNAL-11 "IncidentSlitBox"
*MEAS_COND_AXIS_NAME_INTERNAL-12 "IncidentSlitBox-_Axis"
*MEAS_COND_AXIS_NAME_INTERNAL-13 "Zs"
*MEAS_COND_AXIS_NAME_INTERNAL-14 "IncidentMonochromator"
*MEAS_COND_AXIS_NAME_INTERNAL-15 "IncidentAxdSlit"
*MEAS_COND_AXIS_NAME_INTERNAL-16 "CenterSlit"
*MEAS_COND_AXIS_NAME_INTERNAL-17 "Filter"
*MEAS_COND_AXIS_NAME_INTERNAL-18 "ReceivingSlitBox1"
*MEAS_COND_AXIS_NAME_INTERNAL-19 "ReceivingSlitBox2"
*MEAS_COND_AXIS_NAME_INTERNAL-20 "ReceivingOptics"
*MEAS_COND_AXIS_NAME_INTERNAL-21 "ReceivingSollerSlit"
*MEAS_COND_AXIS_NAME_INTERNAL-22 "ReceivingAxdSlit"
*MEAS_COND_AXIS_NAME_INTERNAL-23 "ReceivingSlitBox1-_Axis"
*MEAS_COND_AXIS_NAME_INTERNAL-24 "ReceivingSlitBox2-_Axis"
*MEAS_COND_AXIS_NAME_INTERNAL-25 "ReceivingSlitBox2-Zd"
*MEAS_COND_AXIS_NAME_INTERNAL-26 "Attenuator"
*MEAS_COND_AXIS_NAME_INTERNAL-27 "CounterMonochromator"
*MEAS_COND_AXIS_NAME_INTERNAL-28 "CounterSlit"
*MEAS_COND_AXIS_NAME_INTERNAL-29 "IncidentPrimary"
*MEAS_COND_AXIS_NAME_INTERNAL-30 "PHA"
*MEAS_COND_AXIS_NAME_MAGICNO-0 "83951616.0000000000"
*MEAS_COND_AXIS_NAME_MAGICNO-1 "268632064.0000000000"
*MEAS_COND_AXIS_NAME_MAGICNO-2 "268500992.0000000000"
*MEAS_COND_AXIS_NAME_MAGICNO-3 "285278208.0000000000"
*MEAS_COND_AXIS_NAME_MAGICNO-4 "83951616.0000000000"
*MEAS_COND_AXIS_NAME_MAGICNO-5 "131072.0000000000"
*MEAS_COND_AXIS_NAME_MAGICNO-6 "131072.0000000000"
*MEAS_COND_AXIS_NAME_MAGICNO-7 "318898176.0000000000"
*MEAS_COND_AXIS_NAME_MAGICNO-8 "20971521.0000000000"
*MEAS_COND_AXIS_NAME_MAGICNO-9 "285343744.0000000000"
*MEAS_COND_AXIS_NAME_MAGICNO-10 "20971521.0000000000"
*MEAS_COND_AXIS_NAME_MAGICNO-11 "22020097.0000000000"
*MEAS_COND_AXIS_NAME_MAGICNO-12 "25165824.0000000000"
*MEAS_COND_AXIS_NAME_MAGICNO-13 "318898176.0000000000"
*MEAS_COND_AXIS_NAME_MAGICNO-14 "1.0000000000"
*MEAS_COND_AXIS_NAME_MAGICNO-15 "20971521.0000000000"
*MEAS_COND_AXIS_NAME_MAGICNO-16 "20971521.0000000000"
*MEAS_COND_AXIS_NAME_MAGICNO-17 "20971521.0000000000"
*MEAS_COND_AXIS_NAME_MAGICNO-18 "23068673.0000000000"
*MEAS_COND_AXIS_NAME_MAGICNO-19 "23068673.0000000000"
*MEAS_COND_AXIS_NAME_MAGICNO-20 "20971521.0000000000"
*MEAS_COND_AXIS_NAME_MAGICNO-21 "20971521.0000000000"
*MEAS_COND_AXIS_NAME_MAGICNO-22 "20971521.0000000000"
*MEAS_COND_AXIS_NAME_MAGICNO-23 "25165824.0000000000"
*MEAS_COND_AXIS_NAME_MAGICNO-24 "25165824.0000000000"
*MEAS_COND_AXIS_NAME_MAGICNO-25 "285343744.0000000000"
*MEAS_COND_AXIS_NAME_MAGICNO-26 "17301505.0000000000"
*MEAS_COND_AXIS_NAME_MAGICNO-27 "20971521.0000000000"
*MEAS_COND_AXIS_NAME_MAGICNO-28 "20971521.0000000000"
*MEAS_COND_AXIS_NAME_MAGICNO-29 "20971521.0000000000"
*MEAS_COND_AXIS_NAME_MAGICNO-30 "0.0000000000"
*MEAS_COND_AXIS_OFFSET-0 "-"
*MEAS_COND_AXIS_OFFSET-1 "-0.0310000000"
*MEAS_COND_AXIS_OFFSET-2 "0.4064000000"
*MEAS_COND_AXIS_OFFSET-3 "-"
*MEAS_COND_AXIS_OFFSET-4 "-"
*MEAS_COND_AXIS_OFFSET-5 "0.4064000000"
*MEAS_COND_AXIS_OFFSET-6 "-0.4374000000"
*MEAS_COND_AXIS_OFFSET-7 "-"
*MEAS_COND_AXIS_OFFSET-8 "-"
*MEAS_COND_AXIS_OFFSET-9 "-"
*MEAS_COND_AXIS_OFFSET-10 "-"
*MEAS_COND_AXIS_OFFSET-11 "-"
*MEAS_COND_AXIS_OFFSET-12 "-"
*MEAS_COND_AXIS_OFFSET-13 "-"
*MEAS_COND_AXIS_OFFSET-14 "-"
*MEAS_COND_AXIS_OFFSET-15 "-"
*MEAS_COND_AXIS_OFFSET-16 "-"
*MEAS_COND_AXIS_OFFSET-17 "-"
*MEAS_COND_AXIS_OFFSET-18 "-"
*MEAS_COND_AXIS_OFFSET-19 "-"
*MEAS_COND_AXIS_OFFSET-20 "-"
*MEAS_COND_AXIS_OFFSET-21 "-"
*MEAS_COND_AXIS_OFFSET-22 "-"
*MEAS_COND_AXIS_OFFSET-23 "-"
*MEAS_COND_AXIS_OFFSET-24 "-"
*MEAS_COND_AXIS_OFFSET-25 "-"
*MEAS_COND_AXIS_OFFSET-26 "-"
*MEAS_COND_AXIS_OFFSET-27 "-"
*MEAS_COND_AXIS_OFFSET-28 "-"
*MEAS_COND_AXIS_OFFSET-29 "-"
*MEAS_COND_AXIS_OFFSET-30 "-"
*MEAS_COND_AXIS_POSITION-0 "0.0000000000"
*MEAS_COND_AXIS_POSITION-1 "0.0000000000"
*MEAS_COND_AXIS_POSITION-2 "0.0000000000"
*MEAS_COND_AXIS_POSITION-3 "-2.8286000000"
*MEAS_COND_AXIS_POSITION-4 "0.0000000000"
*MEAS_COND_AXIS_POSITION-5 "0.0000000000"
*MEAS_COND_AXIS_POSITION-6 "0.0000000000"
*MEAS_COND_AXIS_POSITION-7 "-0.7498700000"
*MEAS_COND_AXIS_POSITION-8 "BB"
*MEAS_COND_AXIS_POSITION-9 "0.0000000000"
*MEAS_COND_AXIS_POSITION-10 "Soller_slit_5.0deg"
*MEAS_COND_AXIS_POSITION-11 "2/3deg"
*MEAS_COND_AXIS_POSITION-12 "2.2088000000"
*MEAS_COND_AXIS_POSITION-13 "-0.6412500000"
*MEAS_COND_AXIS_POSITION-14 "0.0000000000"
*MEAS_COND_AXIS_POSITION-15 "10.0mm"
*MEAS_COND_AXIS_POSITION-16 "None"
*MEAS_COND_AXIS_POSITION-17 "Cu_K-beta"
*MEAS_COND_AXIS_POSITION-18 "13.000mm"
*MEAS_COND_AXIS_POSITION-19 "13.000mm"
*MEAS_COND_AXIS_POSITION-20 "No_unit"
*MEAS_COND_AXIS_POSITION-21 "Soller_slit_5.0deg"
*MEAS_COND_AXIS_POSITION-22 "None"
*MEAS_COND_AXIS_POSITION-23 "13.0000000000"
*MEAS_COND_AXIS_POSITION-24 "13.0000000000"
*MEAS_COND_AXIS_POSITION-25 "0.0281300000"
*MEAS_COND_AXIS_POSITION-26 "Open"
*MEAS_COND_AXIS_POSITION-27 "None"
*MEAS_COND_AXIS_POSITION-28 "None"
*MEAS_COND_AXIS_POSITION-29 "None"
*MEAS_COND_AXIS_POSITION-30 "38.0000000000"
*MEAS_COND_AXIS_UNIT-0 "deg"
*MEAS_COND_AXIS_UNIT-1 "deg"
*MEAS_COND_AXIS_UNIT-2 "deg"
*MEAS_COND_AXIS_UNIT-3 "mm"
*MEAS_COND_AXIS_UNIT-4 "deg"
*MEAS_COND_AXIS_UNIT-5 "deg"
*MEAS_COND_AXIS_UNIT-6 "deg"
*MEAS_COND_AXIS_UNIT-7 "mm"
*MEAS_COND_AXIS_UNIT-8 ""
*MEAS_COND_AXIS_UNIT-9 "pulse"
*MEAS_COND_AXIS_UNIT-10 ""
*MEAS_COND_AXIS_UNIT-11 ""
*MEAS_COND_AXIS_UNIT-12 "mm"
*MEAS_COND_AXIS_UNIT-13 "mm"
*MEAS_COND_AXIS_UNIT-14 ""
*MEAS_COND_AXIS_UNIT-15 ""
*MEAS_COND_AXIS_UNIT-16 ""
*MEAS_COND_AXIS_UNIT-17 ""
*MEAS_COND_AXIS_UNIT-18 ""
*MEAS_COND_AXIS_UNIT-19 ""
*MEAS_COND_AXIS_UNIT-20 ""
*MEAS_COND_AXIS_UNIT-21 ""
*MEAS_COND_AXIS_UNIT-22 ""
*MEAS_COND_AXIS_UNIT-23 "mm"
*MEAS_COND_AXIS_UNIT-24 "mm"
*MEAS_COND_AXIS_UNIT-25 "mm"
*MEAS_COND_AXIS_UNIT-26 ""
*MEAS_COND_AXIS_UNIT-27 ""
*MEAS_COND_AXIS_UNIT-28 ""
*MEAS_COND_AXIS_UNIT-29 ""
*MEAS_COND_AXIS_UNIT-30 "div"
*MEAS_COND_COUNTER_CNTLOSS_CORR "0.0000000000"
*MEAS_COND_COUNTER_PHABASE "38.0000000000"
*MEAS_COND_COUNTER_PHAWINDOW "16.0000000000"
*MEAS_COND_COUNTER_PHA_UNIT "div"
*MEAS_COND_COUNTER_TAUDIFF "30.0000000000"
*MEAS_COND_COUNTER_TAUINT "0.0000000000"
*MEAS_COND_IRRADIATION_MODE "OFF"
*MEAS_COND_IRRADIATION_WIDTH ""
*MEAS_COND_OPT_ATTR "集中法"
*MEAS_COND_OPT_NAME "@集中法"
*MEAS_COND_UNSYMMETRIC_MODE "OFF"
*MEAS_COND_XG_CURRENT "30.0000000000"
*MEAS_COND_XG_VOLTAGE "40.0000000000"
*MEAS_COND_XG_WAVE_TYPE "Ka"
*MEAS_DATA_COUNT "5001.0000000000"
*MEAS_SCAN_AXIS_X "2θ/θ"
*MEAS_SCAN_AXIS_X_INTERNAL "TwoThetaTheta"
*MEAS_SCAN_END_TIME "08/01/23 19:38:40"
*MEAS_SCAN_MODE "CONTINUOUS"
*MEAS_SCAN_MONITOR "0"
*MEAS_SCAN_RESOLUTION_X "0.0002"
*MEAS_SCAN_SPEED "2.5"
*MEAS_SCAN_SPEED_UNIT "deg/min"
*MEAS_SCAN_START "20.0000000000"
*MEAS_SCAN_START_TIME "08/01/23 19:17:17"
*MEAS_SCAN_STEP "0.0100000000"
*MEAS_SCAN_STOP "70.0000000000"
*MEAS_SCAN_UNIT_X "deg"
*MEAS_SCAN_UNIT_Y "counts"
*RAS_HEADER_END
*RAS_INT_START
20.0000 781.0000 1.0000
20.0100 793.0000 1.0000
20.0200 826.0000 1.0000
20.0300 792.0000 1.0000
20.0400 784.0000 1.0000
20.0500 789.0000 1.0000
20.0600 786.0000 1.0000
20.0700 796.0000 1.0000
20.0800 805.0000 1.0000
20.0900 761.0000 1.0000
20.1000 822.0000 1.0000
20.1100 786.0000 1.0000
20.1200 807.0000 1.0000
20.1300 786.0000 1.0000
20.1400 795.0000 1.0000
20.1500 821.0000 1.0000
20.1600 794.0000 1.0000
20.1700 762.0000 1.0000
20.1800 765.0000 1.0000
20.1900 811.0000 1.0000
20.2000 812.0000 1.0000
20.2100 798.0000 1.0000
20.2200 773.0000 1.0000
20.2300 789.0000 1.0000
20.2400 795.0000 1.0000
20.2500 767.0000 1.0000
20.2600 827.0000 1.0000
20.2700 740.0000 1.0000
20.2800 792.0000 1.0000
20.2900 751.0000 1.0000
20.3000 785.0000 1.0000
20.3100 815.0000 1.0000
20.3200 776.0000 1.0000
20.3300 825.0000 1.0000
20.3400 767.0000 1.0000
20.3500 784.0000 1.0000
20.3600 804.0000 1.0000
20.3700 797.0000 1.0000
20.3800 759.0000 1.0000
20.3900 807.0000 1.0000
20.4000 798.0000 1.0000
20.4100 816.0000 1.0000
20.4200 800.0000 1.0000
20.4300 781.0000 1.0000
20.4400 732.0000 1.0000
20.4500 796.0000 1.0000
20.4600 766.0000 1.0000
20.4700 796.0000 1.0000
20.4800 786.0000 1.0000
20.4900 786.0000 1.0000
20.5000 752.0000 1.0000
20.5100 759.0000 1.0000
20.5200 780.0000 1.0000
20.5300 768.0000 1.0000
20.5400 791.0000 1.0000
20.5500 744.0000 1.0000
20.5600 799.0000 1.0000
20.5700 820.0000 1.0000
20.5800 790.0000 1.0000
20.5900 732.0000 1.0000
20.6000 807.0000 1.0000
20.6100 805.0000 1.0000
20.6200 802.0000 1.0000
20.6300 788.0000 1.0000
20.6400 759.0000 1.0000
20.6500 834.0000 1.0000
20.6600 833.0000 1.0000
20.6700 810.0000 1.0000
20.6800 789.0000 1.0000
20.6900 770.0000 1.0000
20.7000 767.0000 1.0000
20.7100 760.0000 1.0000
20.7200 774.0000 1.0000
20.7300 825.0000 1.0000
20.7400 808.0000 1.0000
20.7500 846.0000 1.0000
20.7600 791.0000 1.0000
20.7700 795.0000 1.0000
20.7800 781.0000 1.0000
20.7900 771.0000 1.0000
20.8000 769.0000 1.0000
20.8100 775.0000 1.0000
20.8200 781.0000 1.0000
20.8300 817.0000 1.0000
20.8400 755.0000 1.0000
20.8500 787.0000 1.0000
20.8600 778.0000 1.0000
20.8700 759.0000 1.0000
20.8800 770.0000 1.0000
20.8900 787.0000 1.0000
20.9000 778.0000 1.0000
20.9100 795.0000 1.0000
20.9200 746.0000 1.0000
20.9300 763.0000 1.0000
20.9400 780.0000 1.0000
20.9500 822.0000 1.0000
20.9600 790.0000 1.0000
20.9700 811.0000 1.0000
20.9800 843.0000 1.0000
20.9900 800.0000 1.0000
21.0000 778.0000 1.0000
21.0100 776.0000 1.0000
21.0200 815.0000 1.0000
21.0300 797.0000 1.0000
21.0400 742.0000 1.0000
21.0500 770.0000 1.0000
21.0600 786.0000 1.0000
21.0700 800.0000 1.0000
21.0800 777.0000 1.0000
21.0900 762.0000 1.0000
21.1000 791.0000 1.0000
21.1100 800.0000 1.0000
21.1200 790.0000 1.0000
21.1300 744.0000 1.0000
21.1400 758.0000 1.0000
21.1500 785.0000 1.0000
21.1600 772.0000 1.0000
21.1700 807.0000 1.0000
21.1800 799.0000 1.0000
21.1900 808.0000 1.0000
21.2000 784.0000 1.0000
21.2100 804.0000 1.0000
21.2200 768.0000 1.0000
21.2300 751.0000 1.0000
21.2400 783.0000 1.0000
21.2500 785.0000 1.0000
21.2600 750.0000 1.0000
21.2700 797.0000 1.0000
21.2800 752.0000 1.0000
21.2900 726.0000 1.0000
21.3000 789.0000 1.0000
21.3100 790.0000 1.0000
21.3200 762.0000 1.0000
21.3300 786.0000 1.0000
21.3400 816.0000 1.0000
21.3500 794.0000 1.0000
21.3600 730.0000 1.0000
21.3700 806.0000 1.0000
21.3800 763.0000 1.0000
21.3900 756.0000 1.0000
21.4000 774.0000 1.0000
21.4100 775.0000 1.0000
21.4200 761.0000 1.0000
21.4300 787.0000 1.0000
21.4400 821.0000 1.0000
21.4500 808.0000 1.0000
21.4600 757.0000 1.0000
21.4700 728.0000 1.0000
21.4800 780.0000 1.0000
21.4900 784.0000 1.0000
21.5000 766.0000 1.0000
21.5100 787.0000 1.0000
21.5200 764.0000 1.0000
21.5300 730.0000 1.0000
21.5400 737.0000 1.0000
21.5500 779.0000 1.0000
21.5600 748.0000 1.0000
21.5700 746.0000 1.0000
21.5800 747.0000 1.0000
21.5900 742.0000 1.0000
21.6000 784.0000 1.0000
21.6100 772.0000 1.0000
21.6200 770.0000 1.0000
21.6300 798.0000 1.0000
21.6400 766.0000 1.0000
21.6500 802.0000 1.0000
21.6600 773.0000 1.0000
21.6700 776.0000 1.0000
21.6800 829.0000 1.0000
21.6900 773.0000 1.0000
21.7000 740.0000 1.0000
21.7100 731.0000 1.0000
21.7200 743.0000 1.0000
21.7300 753.0000 1.0000
21.7400 737.0000 1.0000
21.7500 798.0000 1.0000
21.7600 754.0000 1.0000
21.7700 738.0000 1.0000
21.7800 806.0000 1.0000
21.7900 818.0000 1.0000
21.8000 794.0000 1.0000
21.8100 763.0000 1.0000
21.8200 796.0000 1.0000
21.8300 791.0000 1.0000
21.8400 809.0000 1.0000
21.8500 799.0000 1.0000
21.8600 799.0000 1.0000
21.8700 788.0000 1.0000
21.8800 852.0000 1.0000
21.8900 823.0000 1.0000
21.9000 822.0000 1.0000
21.9100 790.0000 1.0000
21.9200 780.0000 1.0000
21.9300 782.0000 1.0000
21.9400 747.0000 1.0000
21.9500 815.0000 1.0000
21.9600 782.0000 1.0000
21.9700 779.0000 1.0000
21.9800 750.0000 1.0000
21.9900 803.0000 1.0000
22.0000 775.0000 1.0000
22.0100 758.0000 1.0000
22.0200 719.0000 1.0000
22.0300 735.0000 1.0000
22.0400 776.0000 1.0000
22.0500 779.0000 1.0000
22.0600 803.0000 1.0000
22.0700 787.0000 1.0000
22.0800 825.0000 1.0000
22.0900 728.0000 1.0000
22.1000 749.0000 1.0000
22.1100 768.0000 1.0000
22.1200 785.0000 1.0000
22.1300 735.0000 1.0000
22.1400 809.0000 1.0000
22.1500 766.0000 1.0000
22.1600 831.0000 1.0000
22.1700 776.0000 1.0000
22.1800 798.0000 1.0000
22.1900 764.0000 1.0000
22.2000 756.0000 1.0000
22.2100 790.0000 1.0000
22.2200 794.0000 1.0000
22.2300 774.0000 1.0000
22.2400 756.0000 1.0000
22.2500 771.0000 1.0000
22.2600 770.0000 1.0000
22.2700 787.0000 1.0000
22.2800 765.0000 1.0000
22.2900 757.0000 1.0000
22.3000 772.0000 1.0000
22.3100 762.0000 1.0000
22.3200 783.0000 1.0000
22.3300 754.0000 1.0000
22.3400 809.0000 1.0000
22.3500 798.0000 1.0000
22.3600 741.0000 1.0000
22.3700 795.0000 1.0000
22.3800 760.0000 1.0000
22.3900 761.0000 1.0000
22.4000 795.0000 1.0000
22.4100 774.0000 1.0000
22.4200 774.0000 1.0000
22.4300 789.0000 1.0000
22.4400 756.0000 1.0000
22.4500 779.0000 1.0000
22.4600 790.0000 1.0000
22.4700 821.0000 1.0000
22.4800 749.0000 1.0000
22.4900 768.0000 1.0000
22.5000 799.0000 1.0000
22.5100 774.0000 1.0000
22.5200 763.0000 1.0000
22.5300 780.0000 1.0000
22.5400 766.0000 1.0000
22.5500 784.0000 1.0000
22.5600 778.0000 1.0000
22.5700 747.0000 1.0000
22.5800 767.0000 1.0000
22.5900 760.0000 1.0000
22.6000 796.0000 1.0000
22.6100 787.0000 1.0000
22.6200 791.0000 1.0000
22.6300 796.0000 1.0000
22.6400 745.0000 1.0000
22.6500 788.0000 1.0000
22.6600 757.0000 1.0000
22.6700 767.0000 1.0000
22.6800 754.0000 1.0000
22.6900 792.0000 1.0000
22.7000 764.0000 1.0000
22.7100 772.0000 1.0000
22.7200 749.0000 1.0000
22.7300 767.0000 1.0000
22.7400 761.0000 1.0000
22.7500 728.0000 1.0000
22.7600 777.0000 1.0000
22.7700 771.0000 1.0000
22.7800 771.0000 1.0000
22.7900 792.0000 1.0000
22.8000 734.0000 1.0000
22.8100 713.0000 1.0000
22.8200 765.0000 1.0000
22.8300 731.0000 1.0000
22.8400 734.0000 1.0000
22.8500 763.0000 1.0000
22.8600 717.0000 1.0000
22.8700 738.0000 1.0000
22.8800 763.0000 1.0000
22.8900 770.0000 1.0000
22.9000 789.0000 1.0000
22.9100 764.0000 1.0000
22.9200 733.0000 1.0000
22.9300 745.0000 1.0000
22.9400 784.0000 1.0000
22.9500 763.0000 1.0000
22.9600 734.0000 1.0000
22.9700 699.0000 1.0000
22.9800 742.0000 1.0000
22.9900 793.0000 1.0000
23.0000 753.0000 1.0000
23.0100 777.0000 1.0000
23.0200 751.0000 1.0000
23.0300 784.0000 1.0000
23.0400 778.0000 1.0000
23.0500 786.0000 1.0000
23.0600 767.0000 1.0000
23.0700 835.0000 1.0000
23.0800 809.0000 1.0000
23.0900 790.0000 1.0000
23.1000 758.0000 1.0000
23.1100 754.0000 1.0000
23.1200 768.0000 1.0000
23.1300 778.0000 1.0000
23.1400 758.0000 1.0000
23.1500 755.0000 1.0000
23.1600 794.0000 1.0000
23.1700 767.0000 1.0000
23.1800 748.0000 1.0000
23.1900 781.0000 1.0000
23.2000 770.0000 1.0000
23.2100 809.0000 1.0000
23.2200 735.0000 1.0000
23.2300 751.0000 1.0000
23.2400 784.0000 1.0000
23.2500 740.0000 1.0000
23.2600 773.0000 1.0000
23.2700 808.0000 1.0000
23.2800 791.0000 1.0000
23.2900 793.0000 1.0000
23.3000 760.0000 1.0000
23.3100 857.0000 1.0000
23.3200 831.0000 1.0000
23.3300 751.0000 1.0000
23.3400 775.0000 1.0000
23.3500 770.0000 1.0000
23.3600 757.0000 1.0000
23.3700 767.0000 1.0000
23.3800 730.0000 1.0000
23.3900 741.0000 1.0000
23.4000 747.0000 1.0000
23.4100 773.0000 1.0000
23.4200 751.0000 1.0000
23.4300 755.0000 1.0000
23.4400 757.0000 1.0000
23.4500 773.0000 1.0000
23.4600 739.0000 1.0000
23.4700 745.0000 1.0000
23.4800 803.0000 1.0000
23.4900 760.0000 1.0000
23.5000 730.0000 1.0000
23.5100 792.0000 1.0000
23.5200 750.0000 1.0000
23.5300 747.0000 1.0000
23.5400 736.0000 1.0000
23.5500 782.0000 1.0000
23.5600 750.0000 1.0000
23.5700 798.0000 1.0000
23.5800 741.0000 1.0000
23.5900 757.0000 1.0000
23.6000 762.0000 1.0000
23.6100 761.0000 1.0000
23.6200 768.0000 1.0000
23.6300 726.0000 1.0000
23.6400 782.0000 1.0000
23.6500 723.0000 1.0000
23.6600 740.0000 1.0000
23.6700 776.0000 1.0000
23.6800 774.0000 1.0000
23.6900 784.0000 1.0000
23.7000 791.0000 1.0000
23.7100 705.0000 1.0000
23.7200 794.0000 1.0000
23.7300 763.0000 1.0000
23.7400 796.0000 1.0000
23.7500 713.0000 1.0000
23.7600 755.0000 1.0000
23.7700 747.0000 1.0000
23.7800 759.0000 1.0000
23.7900 725.0000 1.0000
23.8000 786.0000 1.0000
23.8100 812.0000 1.0000
23.8200 774.0000 1.0000
23.8300 791.0000 1.0000
23.8400 789.0000 1.0000
23.8500 767.0000 1.0000
23.8600 775.0000 1.0000
23.8700 793.0000 1.0000
23.8800 783.0000 1.0000
23.8900 834.0000 1.0000
23.9000 760.0000 1.0000
23.9100 774.0000 1.0000
23.9200 816.0000 1.0000
23.9300 803.0000 1.0000
23.9400 768.0000 1.0000
23.9500 784.0000 1.0000
23.9600 824.0000 1.0000
23.9700 818.0000 1.0000
23.9800 815.0000 1.0000
23.9900 827.0000 1.0000
24.0000 766.0000 1.0000
24.0100 797.0000 1.0000
24.0200 776.0000 1.0000
24.0300 819.0000 1.0000
24.0400 825.0000 1.0000
24.0500 800.0000 1.0000
24.0600 836.0000 1.0000
24.0700 846.0000 1.0000
24.0800 846.0000 1.0000
24.0900 795.0000 1.0000
24.1000 835.0000 1.0000
24.1100 761.0000 1.0000
24.1200 803.0000 1.0000
24.1300 840.0000 1.0000
24.1400 838.0000 1.0000
24.1500 873.0000 1.0000
24.1600 765.0000 1.0000
24.1700 811.0000 1.0000
24.1800 830.0000 1.0000
24.1900 801.0000 1.0000
24.2000 767.0000 1.0000
24.2100 784.0000 1.0000
24.2200 793.0000 1.0000
24.2300 809.0000 1.0000
24.2400 801.0000 1.0000
24.2500 757.0000 1.0000
24.2600 786.0000 1.0000
24.2700 755.0000 1.0000
24.2800 788.0000 1.0000
24.2900 793.0000 1.0000
24.3000 804.0000 1.0000
24.3100 830.0000 1.0000
24.3200 808.0000 1.0000
24.3300 798.0000 1.0000
24.3400 812.0000 1.0000
24.3500 799.0000 1.0000
24.3600 762.0000 1.0000
24.3700 774.0000 1.0000
24.3800 776.0000 1.0000
24.3900 786.0000 1.0000
24.4000 767.0000 1.0000
24.4100 758.0000 1.0000
24.4200 740.0000 1.0000
24.4300 774.0000 1.0000
24.4400 788.0000 1.0000
24.4500 752.0000 1.0000
24.4600 755.0000 1.0000
24.4700 804.0000 1.0000
24.4800 771.0000 1.0000
24.4900 750.0000 1.0000
24.5000 750.0000 1.0000
24.5100 795.0000 1.0000
24.5200 765.0000 1.0000
24.5300 752.0000 1.0000
24.5400 751.0000 1.0000
24.5500 745.0000 1.0000
24.5600 786.0000 1.0000
24.5700 754.0000 1.0000
24.5800 735.0000 1.0000
24.5900 743.0000 1.0000
24.6000 747.0000 1.0000
24.6100 696.0000 1.0000
24.6200 796.0000 1.0000
24.6300 788.0000 1.0000
24.6400 731.0000 1.0000
24.6500 729.0000 1.0000
24.6600 800.0000 1.0000
24.6700 814.0000 1.0000
24.6800 740.0000 1.0000
24.6900 738.0000 1.0000
24.7000 746.0000 1.0000
24.7100 732.0000 1.0000
24.7200 708.0000 1.0000
24.7300 740.0000 1.0000
24.7400 780.0000 1.0000
24.7500 734.0000 1.0000
24.7600 754.0000 1.0000
24.7700 731.0000 1.0000
24.7800 714.0000 1.0000
24.7900 775.0000 1.0000
24.8000 722.0000 1.0000
24.8100 728.0000 1.0000
24.8200 762.0000 1.0000
24.8300 752.0000 1.0000
24.8400 805.0000 1.0000
24.8500 749.0000 1.0000
24.8600 710.0000 1.0000
24.8700 764.0000 1.0000
24.8800 732.0000 1.0000
24.8900 739.0000 1.0000
24.9000 771.0000 1.0000
24.9100 719.0000 1.0000
24.9200 728.0000 1.0000
24.9300 750.0000 1.0000
24.9400 792.0000 1.0000
24.9500 739.0000 1.0000
24.9600 745.0000 1.0000
24.9700 722.0000 1.0000
24.9800 760.0000 1.0000
24.9900 728.0000 1.0000
25.0000 753.0000 1.0000
25.0100 751.0000 1.0000
25.0200 773.0000 1.0000
25.0300 763.0000 1.0000
25.0400 698.0000 1.0000
25.0500 713.0000 1.0000
25.0600 761.0000 1.0000
25.0700 792.0000 1.0000
25.0800 743.0000 1.0000
25.0900 717.0000 1.0000
25.1000 763.0000 1.0000
25.1100 706.0000 1.0000
25.1200 775.0000 1.0000
25.1300 690.0000 1.0000
25.1400 742.0000 1.0000
25.1500 686.0000 1.0000
25.1600 751.0000 1.0000
25.1700 761.0000 1.0000
25.1800 797.0000 1.0000
25.1900 756.0000 1.0000
25.2000 710.0000 1.0000
25.2100 707.0000 1.0000
25.2200 766.0000 1.0000
25.2300 777.0000 1.0000
25.2400 743.0000 1.0000
25.2500 735.0000 1.0000
25.2600 746.0000 1.0000
25.2700 703.0000 1.0000
25.2800 780.0000 1.0000
25.2900 736.0000 1.0000
25.3000 757.0000 1.0000
25.3100 768.0000 1.0000
25.3200 741.0000 1.0000
25.3300 702.0000 1.0000
25.3400 721.0000 1.0000
25.3500 737.0000 1.0000
25.3600 761.0000 1.0000
25.3700 750.0000 1.0000
25.3800 744.0000 1.0000
25.3900 713.0000 1.0000
25.4000 727.0000 1.0000
25.4100 766.0000 1.0000
25.4200 753.0000 1.0000
25.4300 736.0000 1.0000
25.4400 734.0000 1.0000
25.4500 706.0000 1.0000
25.4600 717.0000 1.0000
25.4700 743.0000 1.0000
25.4800 778.0000 1.0000
25.4900 698.0000 1.0000
25.5000 685.0000 1.0000
25.5100 760.0000 1.0000
25.5200 774.0000 1.0000
25.5300 734.0000 1.0000
25.5400 794.0000 1.0000
25.5500 736.0000 1.0000
25.5600 734.0000 1.0000
25.5700 732.0000 1.0000
25.5800 712.0000 1.0000
25.5900 766.0000 1.0000
25.6000 757.0000 1.0000
25.6100 732.0000 1.0000
25.6200 742.0000 1.0000
25.6300 741.0000 1.0000
25.6400 773.0000 1.0000
25.6500 774.0000 1.0000
25.6600 772.0000 1.0000
25.6700 786.0000 1.0000
25.6800 765.0000 1.0000
25.6900 747.0000 1.0000
25.7000 784.0000 1.0000
25.7100 730.0000 1.0000
25.7200 781.0000 1.0000
25.7300 825.0000 1.0000
25.7400 780.0000 1.0000
25.7500 785.0000 1.0000
25.7600 743.0000 1.0000
25.7700 729.0000 1.0000
25.7800 744.0000 1.0000
25.7900 797.0000 1.0000
25.8000 777.0000 1.0000
25.8100 826.0000 1.0000
25.8200 746.0000 1.0000
25.8300 781.0000 1.0000
25.8400 796.0000 1.0000
25.8500 787.0000 1.0000
25.8600 770.0000 1.0000
25.8700 789.0000 1.0000
25.8800 760.0000 1.0000
25.8900 784.0000 1.0000
25.9000 790.0000 1.0000
25.9100 805.0000 1.0000
25.9200 809.0000 1.0000
25.9300 797.0000 1.0000
25.9400 784.0000 1.0000
25.9500 776.0000 1.0000
25.9600 811.0000 1.0000
25.9700 813.0000 1.0000
25.9800 811.0000 1.0000
25.9900 856.0000 1.0000
26.0000 776.0000 1.0000
26.0100 780.0000 1.0000
26.0200 774.0000 1.0000
26.0300 823.0000 1.0000
26.0400 845.0000 1.0000
26.0500 870.0000 1.0000
26.0600 828.0000 1.0000
26.0700 822.0000 1.0000
26.0800 902.0000 1.0000
26.0900 814.0000 1.0000
26.1000 876.0000 1.0000
26.1100 884.0000 1.0000
26.1200 911.0000 1.0000
26.1300 915.0000 1.0000
26.1400 941.0000 1.0000
26.1500 986.0000 1.0000
26.1600 955.0000 1.0000
26.1700 948.0000 1.0000
26.1800 1009.0000 1.0000
26.1900 1032.0000 1.0000
26.2000 1014.0000 1.0000
26.2100 1025.0000 1.0000
26.2200 1055.0000 1.0000
26.2300 1125.0000 1.0000
26.2400 1142.0000 1.0000
26.2500 1174.0000 1.0000
26.2600 1151.0000 1.0000
26.2700 1230.0000 1.0000
26.2800 1268.0000 1.0000
26.2900 1294.0000 1.0000
26.3000 1399.0000 1.0000
26.3100 1443.0000 1.0000
26.3200 1548.0000 1.0000
26.3300 1604.0000 1.0000
26.3400 1652.0000 1.0000
26.3500 1770.0000 1.0000
26.3600 1862.0000 1.0000
26.3700 1990.0000 1.0000
26.3800 2099.0000 1.0000
26.3900 2203.0000 1.0000
26.4000 2315.0000 1.0000
26.4100 2443.0000 1.0000
26.4200 2556.0000 1.0000
26.4300 2684.0000 1.0000
26.4400 2750.0000 1.0000
26.4500 2743.0000 1.0000
26.4600 2823.0000 1.0000
26.4700 2684.0000 1.0000
26.4800 2689.0000 1.0000
26.4900 2447.0000 1.0000
26.5000 2521.0000 1.0000
26.5100 2424.0000 1.0000
26.5200 2278.0000 1.0000
26.5300 2195.0000 1.0000
26.5400 2113.0000 1.0000
26.5500 1938.0000 1.0000
26.5600 1826.0000 1.0000
26.5700 1706.0000 1.0000
26.5800 1658.0000 1.0000
26.5900 1604.0000 1.0000
26.6000 1498.0000 1.0000
26.6100 1502.0000 1.0000
26.6200 1327.0000 1.0000
26.6300 1264.0000 1.0000
26.6400 1263.0000 1.0000
26.6500 1219.0000 1.0000
26.6600 1192.0000 1.0000
26.6700 1123.0000 1.0000
26.6800 1131.0000 1.0000
26.6900 1093.0000 1.0000
26.7000 1030.0000 1.0000
26.7100 1067.0000 1.0000
26.7200 990.0000 1.0000
26.7300 1003.0000 1.0000
26.7400 978.0000 1.0000
26.7500 960.0000 1.0000
26.7600 929.0000 1.0000
26.7700 905.0000 1.0000
26.7800 874.0000 1.0000
26.7900 873.0000 1.0000
26.8000 877.0000 1.0000
26.8100 875.0000 1.0000
26.8200 847.0000 1.0000
26.8300 864.0000 1.0000
26.8400 869.0000 1.0000
26.8500 842.0000 1.0000
26.8600 833.0000 1.0000
26.8700 815.0000 1.0000
26.8800 810.0000 1.0000
26.8900 775.0000 1.0000
26.9000 822.0000 1.0000
26.9100 841.0000 1.0000
26.9200 785.0000 1.0000
26.9300 823.0000 1.0000
26.9400 802.0000 1.0000
26.9500 809.0000 1.0000
26.9600 772.0000 1.0000
26.9700 792.0000 1.0000
26.9800 786.0000 1.0000
26.9900 749.0000 1.0000
27.0000 793.0000 1.0000
27.0100 788.0000 1.0000
27.0200 735.0000 1.0000
27.0300 711.0000 1.0000
27.0400 722.0000 1.0000
27.0500 748.0000 1.0000
27.0600 752.0000 1.0000
27.0700 739.0000 1.0000
27.0800 778.0000 1.0000
27.0900 730.0000 1.0000
27.1000 718.0000 1.0000
27.1100 761.0000 1.0000
27.1200 724.0000 1.0000
27.1300 687.0000 1.0000
27.1400 716.0000 1.0000
27.1500 744.0000 1.0000
27.1600 723.0000 1.0000
27.1700 673.0000 1.0000
27.1800 718.0000 1.0000
27.1900 661.0000 1.0000
27.2000 682.0000 1.0000
27.2100 692.0000 1.0000
27.2200 708.0000 1.0000
27.2300 773.0000 1.0000
27.2400 704.0000 1.0000
27.2500 721.0000 1.0000
27.2600 699.0000 1.0000
27.2700 738.0000 1.0000
27.2800 689.0000 1.0000
27.2900 687.0000 1.0000
27.3000 724.0000 1.0000
27.3100 679.0000 1.0000
27.3200 695.0000 1.0000
27.3300 746.0000 1.0000
27.3400 716.0000 1.0000
27.3500 671.0000 1.0000
27.3600 718.0000 1.0000
27.3700 684.0000 1.0000
27.3800 711.0000 1.0000
27.3900 663.0000 1.0000
27.4000 715.0000 1.0000
27.4100 674.0000 1.0000
27.4200 689.0000 1.0000
27.4300 721.0000 1.0000
27.4400 686.0000 1.0000
27.4500 701.0000 1.0000
27.4600 721.0000 1.0000
27.4700 734.0000 1.0000
27.4800 710.0000 1.0000
27.4900 700.0000 1.0000
27.5000 693.0000 1.0000
27.5100 701.0000 1.0000
27.5200 655.0000 1.0000
27.5300 725.0000 1.0000
27.5400 703.0000 1.0000
27.5500 698.0000 1.0000
27.5600 639.0000 1.0000
27.5700 682.0000 1.0000
27.5800 699.0000 1.0000
27.5900 704.0000 1.0000
27.6000 689.0000 1.0000
27.6100 690.0000 1.0000
27.6200 700.0000 1.0000
27.6300 688.0000 1.0000
27.6400 674.0000 1.0000
27.6500 714.0000 1.0000
27.6600 677.0000 1.0000
27.6700 719.0000 1.0000
27.6800 683.0000 1.0000
27.6900 698.0000 1.0000
27.7000 645.0000 1.0000
27.7100 670.0000 1.0000
27.7200 644.0000 1.0000
27.7300 744.0000 1.0000
27.7400 666.0000 1.0000
27.7500 673.0000 1.0000
27.7600 661.0000 1.0000
27.7700 673.0000 1.0000
27.7800 695.0000 1.0000
27.7900 700.0000 1.0000
27.8000 697.0000 1.0000
27.8100 672.0000 1.0000
27.8200 666.0000 1.0000
27.8300 645.0000 1.0000
27.8400 649.0000 1.0000
27.8500 642.0000 1.0000
27.8600 644.0000 1.0000
27.8700 670.0000 1.0000
27.8800 671.0000 1.0000
27.8900 674.0000 1.0000
27.9000 662.0000 1.0000
27.9100 658.0000 1.0000
27.9200 673.0000 1.0000
27.9300 656.0000 1.0000
27.9400 645.0000 1.0000
27.9500 678.0000 1.0000
27.9600 689.0000 1.0000
27.9700 716.0000 1.0000
27.9800 635.0000 1.0000
27.9900 652.0000 1.0000
28.0000 684.0000 1.0000
28.0100 642.0000 1.0000
28.0200 627.0000 1.0000
28.0300 656.0000 1.0000
28.0400 651.0000 1.0000
28.0500 661.0000 1.0000
28.0600 690.0000 1.0000
28.0700 651.0000 1.0000
28.0800 632.0000 1.0000
28.0900 686.0000 1.0000
28.1000 682.0000 1.0000
28.1100 683.0000 1.0000
28.1200 666.0000 1.0000
28.1300 672.0000 1.0000
28.1400 675.0000 1.0000
28.1500 687.0000 1.0000
28.1600 641.0000 1.0000
28.1700 704.0000 1.0000
28.1800 716.0000 1.0000
28.1900 675.0000 1.0000
28.2000 637.0000 1.0000
28.2100 703.0000 1.0000
28.2200 712.0000 1.0000
28.2300 687.0000 1.0000
28.2400 715.0000 1.0000
28.2500 763.0000 1.0000
28.2600 733.0000 1.0000
28.2700 811.0000 1.0000
28.2800 871.0000 1.0000
28.2900 945.0000 1.0000
28.3000 972.0000 1.0000
28.3100 983.0000 1.0000
28.3200 1074.0000 1.0000
28.3300 1055.0000 1.0000
28.3400 1030.0000 1.0000
28.3500 983.0000 1.0000
28.3600 998.0000 1.0000
28.3700 912.0000 1.0000
28.3800 877.0000 1.0000
28.3900 897.0000 1.0000
28.4000 812.0000 1.0000
28.4100 831.0000 1.0000
28.4200 824.0000 1.0000
28.4300 768.0000 1.0000
28.4400 756.0000 1.0000
28.4500 728.0000 1.0000
28.4600 674.0000 1.0000
28.4700 719.0000 1.0000
28.4800 667.0000 1.0000
28.4900 714.0000 1.0000
28.5000 693.0000 1.0000
28.5100 651.0000 1.0000
28.5200 685.0000 1.0000
28.5300 696.0000 1.0000
28.5400 654.0000 1.0000
28.5500 663.0000 1.0000
28.5600 689.0000 1.0000
28.5700 636.0000 1.0000
28.5800 631.0000 1.0000
28.5900 657.0000 1.0000
28.6000 672.0000 1.0000
28.6100 664.0000 1.0000
28.6200 644.0000 1.0000
28.6300 661.0000 1.0000
28.6400 656.0000 1.0000
28.6500 643.0000 1.0000
28.6600 674.0000 1.0000
28.6700 660.0000 1.0000
28.6800 663.0000 1.0000
28.6900 648.0000 1.0000
28.7000 666.0000 1.0000
28.7100 676.0000 1.0000
28.7200 654.0000 1.0000
28.7300 674.0000 1.0000
28.7400 657.0000 1.0000
28.7500 638.0000 1.0000
28.7600 598.0000 1.0000
28.7700 631.0000 1.0000
28.7800 603.0000 1.0000
28.7900 654.0000 1.0000
28.8000 625.0000 1.0000
28.8100 627.0000 1.0000
28.8200 624.0000 1.0000
28.8300 633.0000 1.0000
28.8400 617.0000 1.0000
28.8500 647.0000 1.0000
28.8600 650.0000 1.0000
28.8700 634.0000 1.0000
28.8800 625.0000 1.0000
28.8900 600.0000 1.0000
28.9000 665.0000 1.0000
28.9100 613.0000 1.0000
28.9200 622.0000 1.0000
28.9300 641.0000 1.0000
28.9400 674.0000 1.0000
28.9500 636.0000 1.0000
28.9600 642.0000 1.0000
28.9700 629.0000 1.0000
28.9800 668.0000 1.0000
28.9900 643.0000 1.0000
29.0000 620.0000 1.0000
29.0100 628.0000 1.0000
29.0200 614.0000 1.0000
29.0300 574.0000 1.0000
29.0400 589.0000 1.0000
29.0500 611.0000 1.0000
29.0600 589.0000 1.0000
29.0700 657.0000 1.0000
29.0800 603.0000 1.0000
29.0900 600.0000 1.0000
29.1000 643.0000 1.0000
29.1100 664.0000 1.0000
29.1200 611.0000 1.0000
29.1300 642.0000 1.0000
29.1400 632.0000 1.0000
29.1500 640.0000 1.0000
29.1600 634.0000 1.0000
29.1700 611.0000 1.0000
29.1800 610.0000 1.0000
29.1900 629.0000 1.0000
29.2000 622.0000 1.0000
29.2100 646.0000 1.0000
29.2200 594.0000 1.0000
29.2300 639.0000 1.0000
29.2400 623.0000 1.0000
29.2500 641.0000 1.0000
29.2600 639.0000 1.0000
29.2700 632.0000 1.0000
29.2800 629.0000 1.0000
29.2900 589.0000 1.0000
29.3000 613.0000 1.0000
29.3100 604.0000 1.0000
29.3200 631.0000 1.0000
29.3300 619.0000 1.0000
29.3400 633.0000 1.0000
29.3500 617.0000 1.0000
29.3600 653.0000 1.0000
29.3700 619.0000 1.0000
29.3800 603.0000 1.0000
29.3900 578.0000 1.0000
29.4000 613.0000 1.0000
29.4100 635.0000 1.0000
29.4200 637.0000 1.0000
29.4300 586.0000 1.0000
29.4400 595.0000 1.0000
29.4500 620.0000 1.0000
29.4600 577.0000 1.0000
29.4700 623.0000 1.0000
29.4800 646.0000 1.0000
29.4900 648.0000 1.0000
29.5000 640.0000 1.0000
29.5100 578.0000 1.0000
29.5200 631.0000 1.0000
29.5300 607.0000 1.0000
29.5400 632.0000 1.0000
29.5500 625.0000 1.0000
29.5600 614.0000 1.0000
29.5700 640.0000 1.0000
29.5800 606.0000 1.0000
29.5900 590.0000 1.0000
29.6000 618.0000 1.0000
29.6100 621.0000 1.0000
29.6200 606.0000 1.0000
29.6300 605.0000 1.0000
29.6400 622.0000 1.0000
29.6500 632.0000 1.0000
29.6600 635.0000 1.0000
29.6700 615.0000 1.0000
29.6800 586.0000 1.0000
29.6900 656.0000 1.0000
29.7000 598.0000 1.0000
29.7100 617.0000 1.0000
29.7200 599.0000 1.0000
29.7300 614.0000 1.0000
29.7400 608.0000 1.0000
29.7500 579.0000 1.0000
29.7600 614.0000 1.0000
29.7700 607.0000 1.0000
29.7800 617.0000 1.0000
29.7900 609.0000 1.0000
29.8000 640.0000 1.0000
29.8100 605.0000 1.0000
29.8200 600.0000 1.0000
29.8300 645.0000 1.0000
29.8400 622.0000 1.0000
29.8500 578.0000 1.0000
29.8600 609.0000 1.0000
29.8700 602.0000 1.0000
29.8800 592.0000 1.0000
29.8900 601.0000 1.0000
29.9000 620.0000 1.0000
29.9100 607.0000 1.0000
29.9200 614.0000 1.0000
29.9300 606.0000 1.0000
29.9400 596.0000 1.0000
29.9500 583.0000 1.0000
29.9600 606.0000 1.0000
29.9700 615.0000 1.0000
29.9800 605.0000 1.0000
29.9900 606.0000 1.0000
30.0000 629.0000 1.0000
30.0100 603.0000 1.0000
30.0200 610.0000 1.0000
30.0300 592.0000 1.0000
30.0400 583.0000 1.0000
30.0500 604.0000 1.0000
30.0600 637.0000 1.0000
30.0700 620.0000 1.0000
30.0800 591.0000 1.0000
30.0900 656.0000 1.0000
30.1000 630.0000 1.0000
30.1100 607.0000 1.0000
30.1200 612.0000 1.0000
30.1300 605.0000 1.0000
30.1400 558.0000 1.0000
30.1500 561.0000 1.0000
30.1600 598.0000 1.0000
30.1700 610.0000 1.0000
30.1800 623.0000 1.0000
30.1900 611.0000 1.0000
30.2000 582.0000 1.0000
30.2100 595.0000 1.0000
30.2200 591.0000 1.0000
30.2300 570.0000 1.0000
30.2400 611.0000 1.0000
30.2500 604.0000 1.0000
30.2600 609.0000 1.0000
30.2700 590.0000 1.0000
30.2800 615.0000 1.0000
30.2900 604.0000 1.0000
30.3000 602.0000 1.0000
30.3100 600.0000 1.0000
30.3200 578.0000 1.0000
30.3300 569.0000 1.0000
30.3400 618.0000 1.0000
30.3500 614.0000 1.0000
30.3600 592.0000 1.0000
30.3700 613.0000 1.0000
30.3800 646.0000 1.0000
30.3900 582.0000 1.0000
30.4000 583.0000 1.0000
30.4100 590.0000 1.0000
30.4200 584.0000 1.0000
30.4300 606.0000 1.0000
30.4400 620.0000 1.0000
30.4500 584.0000 1.0000
30.4600 581.0000 1.0000
30.4700 594.0000 1.0000
30.4800 618.0000 1.0000
30.4900 598.0000 1.0000
30.5000 578.0000 1.0000
30.5100 589.0000 1.0000
30.5200 568.0000 1.0000
30.5300 540.0000 1.0000
30.5400 580.0000 1.0000
30.5500 582.0000 1.0000
30.5600 581.0000 1.0000
30.5700 599.0000 1.0000
30.5800 580.0000 1.0000
30.5900 613.0000 1.0000
30.6000 578.0000 1.0000
30.6100 621.0000 1.0000
30.6200 620.0000 1.0000
30.6300 631.0000 1.0000
30.6400 591.0000 1.0000
30.6500 584.0000 1.0000
30.6600 549.0000 1.0000
30.6700 551.0000 1.0000
30.6800 561.0000 1.0000
30.6900 550.0000 1.0000
30.7000 588.0000 1.0000
30.7100 587.0000 1.0000
30.7200 584.0000 1.0000
30.7300 562.0000 1.0000
30.7400 611.0000 1.0000
30.7500 576.0000 1.0000
30.7600 573.0000 1.0000
30.7700 585.0000 1.0000
30.7800 560.0000 1.0000
30.7900 598.0000 1.0000
30.8000 563.0000 1.0000
30.8100 571.0000 1.0000
30.8200 574.0000 1.0000
30.8300 565.0000 1.0000
30.8400 636.0000 1.0000
30.8500 590.0000 1.0000
30.8600 568.0000 1.0000
30.8700 578.0000 1.0000
30.8800 559.0000 1.0000
30.8900 575.0000 1.0000
30.9000 576.0000 1.0000
30.9100 605.0000 1.0000
30.9200 603.0000 1.0000
30.9300 555.0000 1.0000
30.9400 579.0000 1.0000
30.9500 611.0000 1.0000
30.9600 593.0000 1.0000
30.9700 586.0000 1.0000
30.9800 573.0000 1.0000
30.9900 583.0000 1.0000
31.0000 583.0000 1.0000
31.0100 583.0000 1.0000
31.0200 614.0000 1.0000
31.0300 599.0000 1.0000
31.0400 558.0000 1.0000
31.0500 556.0000 1.0000
31.0600 612.0000 1.0000
31.0700 570.0000 1.0000
31.0800 600.0000 1.0000
31.0900 608.0000 1.0000
31.1000 567.0000 1.0000
31.1100 572.0000 1.0000
31.1200 580.0000 1.0000
31.1300 558.0000 1.0000
31.1400 573.0000 1.0000
31.1500 589.0000 1.0000
31.1600 605.0000 1.0000
31.1700 624.0000 1.0000
31.1800 593.0000 1.0000
31.1900 611.0000 1.0000
31.2000 628.0000 1.0000
31.2100 642.0000 1.0000
31.2200 560.0000 1.0000
31.2300 573.0000 1.0000
31.2400 607.0000 1.0000
31.2500 563.0000 1.0000
31.2600 577.0000 1.0000
31.2700 555.0000 1.0000
31.2800 563.0000 1.0000
31.2900 588.0000 1.0000
31.3000 580.0000 1.0000
31.3100 589.0000 1.0000
31.3200 603.0000 1.0000
31.3300 618.0000 1.0000
31.3400 645.0000 1.0000
31.3500 615.0000 1.0000
31.3600 593.0000 1.0000
31.3700 545.0000 1.0000
31.3800 552.0000 1.0000
31.3900 565.0000 1.0000
31.4000 608.0000 1.0000
31.4100 553.0000 1.0000
31.4200 585.0000 1.0000
31.4300 533.0000 1.0000
31.4400 561.0000 1.0000
31.4500 568.0000 1.0000
31.4600 609.0000 1.0000
31.4700 587.0000 1.0000
31.4800 623.0000 1.0000
31.4900 623.0000 1.0000
31.5000 562.0000 1.0000
31.5100 600.0000 1.0000
31.5200 610.0000 1.0000
31.5300 563.0000 1.0000
31.5400 600.0000 1.0000
31.5500 600.0000 1.0000
31.5600 581.0000 1.0000
31.5700 593.0000 1.0000
31.5800 590.0000 1.0000
31.5900 590.0000 1.0000
31.6000 597.0000 1.0000
31.6100 542.0000 1.0000
31.6200 593.0000 1.0000
31.6300 585.0000 1.0000
31.6400 570.0000 1.0000
31.6500 572.0000 1.0000
31.6600 626.0000 1.0000
31.6700 600.0000 1.0000
31.6800 594.0000 1.0000
31.6900 574.0000 1.0000
31.7000 571.0000 1.0000
31.7100 554.0000 1.0000
31.7200 585.0000 1.0000
31.7300 573.0000 1.0000
31.7400 579.0000 1.0000
31.7500 579.0000 1.0000
31.7600 593.0000 1.0000
31.7700 615.0000 1.0000
31.7800 577.0000 1.0000
31.7900 530.0000 1.0000
31.8000 568.0000 1.0000
31.8100 547.0000 1.0000
31.8200 585.0000 1.0000
31.8300 557.0000 1.0000
31.8400 576.0000 1.0000
31.8500 569.0000 1.0000
31.8600 568.0000 1.0000
31.8700 554.0000 1.0000
31.8800 556.0000 1.0000
31.8900 577.0000 1.0000
31.9000 585.0000 1.0000
31.9100 548.0000 1.0000
31.9200 560.0000 1.0000
31.9300 563.0000 1.0000
31.9400 563.0000 1.0000
31.9500 553.0000 1.0000
31.9600 558.0000 1.0000
31.9700 549.0000 1.0000
31.9800 566.0000 1.0000
31.9900 573.0000 1.0000
32.0000 557.0000 1.0000
32.0100 554.0000 1.0000
32.0200 566.0000 1.0000
32.0300 587.0000 1.0000
32.0400 555.0000 1.0000
32.0500 582.0000 1.0000
32.0600 601.0000 1.0000
32.0700 587.0000 1.0000
32.0800 570.0000 1.0000
32.0900 586.0000 1.0000
32.1000 572.0000 1.0000
32.1100 547.0000 1.0000
32.1200 584.0000 1.0000
32.1300 579.0000 1.0000
32.1400 549.0000 1.0000
32.1500 589.0000 1.0000
32.1600 551.0000 1.0000
32.1700 540.0000 1.0000
32.1800 544.0000 1.0000
32.1900 538.0000 1.0000
32.2000 560.0000 1.0000
32.2100 586.0000 1.0000
32.2200 563.0000 1.0000
32.2300 556.0000 1.0000
32.2400 554.0000 1.0000
32.2500 544.0000 1.0000
32.2600 574.0000 1.0000
32.2700 552.0000 1.0000
32.2800 554.0000 1.0000
32.2900 547.0000 1.0000
32.3000 529.0000 1.0000
32.3100 540.0000 1.0000
32.3200 524.0000 1.0000
32.3300 572.0000 1.0000
32.3400 575.0000 1.0000
32.3500 561.0000 1.0000
32.3600 556.0000 1.0000
32.3700 524.0000 1.0000
32.3800 517.0000 1.0000
32.3900 554.0000 1.0000
32.4000 515.0000 1.0000
32.4100 565.0000 1.0000
32.4200 550.0000 1.0000
32.4300 553.0000 1.0000
32.4400 540.0000 1.0000
32.4500 578.0000 1.0000
32.4600 560.0000 1.0000
32.4700 571.0000 1.0000
32.4800 559.0000 1.0000
32.4900 562.0000 1.0000
32.5000 546.0000 1.0000
32.5100 563.0000 1.0000
32.5200 555.0000 1.0000
32.5300 591.0000 1.0000
32.5400 564.0000 1.0000
32.5500 577.0000 1.0000
32.5600 542.0000 1.0000
32.5700 544.0000 1.0000
32.5800 571.0000 1.0000
32.5900 581.0000 1.0000
32.6000 579.0000 1.0000
32.6100 577.0000 1.0000
32.6200 581.0000 1.0000
32.6300 544.0000 1.0000
32.6400 577.0000 1.0000
32.6500 555.0000 1.0000
32.6600 582.0000 1.0000
32.6700 573.0000 1.0000
32.6800 563.0000 1.0000
32.6900 591.0000 1.0000
32.7000 515.0000 1.0000
32.7100 575.0000 1.0000
32.7200 543.0000 1.0000
32.7300 580.0000 1.0000
32.7400 573.0000 1.0000
32.7500 567.0000 1.0000
32.7600 522.0000 1.0000
32.7700 572.0000 1.0000
32.7800 570.0000 1.0000
32.7900 534.0000 1.0000
32.8000 482.0000 1.0000
32.8100 559.0000 1.0000
32.8200 549.0000 1.0000
32.8300 553.0000 1.0000
32.8400 610.0000 1.0000
32.8500 562.0000 1.0000
32.8600 543.0000 1.0000
32.8700 580.0000 1.0000
32.8800 552.0000 1.0000
32.8900 600.0000 1.0000
32.9000 586.0000 1.0000
32.9100 585.0000 1.0000
32.9200 564.0000 1.0000
32.9300 560.0000 1.0000
32.9400 548.0000 1.0000
32.9500 588.0000 1.0000
32.9600 593.0000 1.0000
32.9700 582.0000 1.0000
32.9800 620.0000 1.0000
32.9900 598.0000 1.0000
33.0000 546.0000 1.0000
33.0100 556.0000 1.0000
33.0200 571.0000 1.0000
33.0300 623.0000 1.0000
33.0400 630.0000 1.0000
33.0500 608.0000 1.0000
33.0600 647.0000 1.0000
33.0700 684.0000 1.0000
33.0800 638.0000 1.0000
33.0900 637.0000 1.0000
33.1000 670.0000 1.0000
33.1100 652.0000 1.0000
33.1200 647.0000 1.0000
33.1300 675.0000 1.0000
33.1400 690.0000 1.0000
33.1500 655.0000 1.0000
33.1600 735.0000 1.0000
33.1700 664.0000 1.0000
33.1800 634.0000 1.0000
33.1900 624.0000 1.0000
33.2000 597.0000 1.0000
33.2100 632.0000 1.0000
33.2200 649.0000 1.0000
33.2300 627.0000 1.0000
33.2400 589.0000 1.0000
33.2500 609.0000 1.0000
33.2600 571.0000 1.0000
33.2700 621.0000 1.0000
33.2800 606.0000 1.0000
33.2900 616.0000 1.0000
33.3000 609.0000 1.0000
33.3100 601.0000 1.0000
33.3200 600.0000 1.0000
33.3300 630.0000 1.0000
33.3400 607.0000 1.0000
33.3500 588.0000 1.0000
33.3600 641.0000 1.0000
33.3700 655.0000 1.0000
33.3800 654.0000 1.0000
33.3900 642.0000 1.0000
33.4000 684.0000 1.0000
33.4100 680.0000 1.0000
33.4200 687.0000 1.0000
33.4300 616.0000 1.0000
33.4400 646.0000 1.0000
33.4500 698.0000 1.0000
33.4600 705.0000 1.0000
33.4700 741.0000 1.0000
33.4800 711.0000 1.0000
33.4900 758.0000 1.0000
33.5000 812.0000 1.0000
33.5100 823.0000 1.0000
33.5200 840.0000 1.0000
33.5300 862.0000 1.0000
33.5400 895.0000 1.0000
33.5500 941.0000 1.0000
33.5600 968.0000 1.0000
33.5700 1041.0000 1.0000
33.5800 1021.0000 1.0000
33.5900 1051.0000 1.0000
33.6000 1115.0000 1.0000
33.6100 1169.0000 1.0000
33.6200 1279.0000 1.0000
33.6300 1294.0000 1.0000
33.6400 1322.0000 1.0000
33.6500 1356.0000 1.0000
33.6600 1361.0000 1.0000
33.6700 1345.0000 1.0000
33.6800 1352.0000 1.0000
33.6900 1304.0000 1.0000
33.7000 1274.0000 1.0000
33.7100 1348.0000 1.0000
33.7200 1272.0000 1.0000
33.7300 1203.0000 1.0000
33.7400 1231.0000 1.0000
33.7500 1102.0000 1.0000
33.7600 1029.0000 1.0000
33.7700 1084.0000 1.0000
33.7800 1012.0000 1.0000
33.7900 930.0000 1.0000
33.8000 929.0000 1.0000
33.8100 903.0000 1.0000
33.8200 841.0000 1.0000
33.8300 811.0000 1.0000
33.8400 787.0000 1.0000
33.8500 783.0000 1.0000
33.8600 798.0000 1.0000
33.8700 738.0000 1.0000
33.8800 732.0000 1.0000
33.8900 700.0000 1.0000
33.9000 685.0000 1.0000
33.9100 664.0000 1.0000
33.9200 668.0000 1.0000
33.9300 672.0000 1.0000
33.9400 668.0000 1.0000
33.9500 641.0000 1.0000
33.9600 624.0000 1.0000
33.9700 628.0000 1.0000
33.9800 587.0000 1.0000
33.9900 637.0000 1.0000
34.0000 622.0000 1.0000
34.0100 609.0000 1.0000
34.0200 616.0000 1.0000
34.0300 615.0000 1.0000
34.0400 599.0000 1.0000
34.0500 583.0000 1.0000
34.0600 580.0000 1.0000
34.0700 566.0000 1.0000
34.0800 540.0000 1.0000
34.0900 553.0000 1.0000
34.1000 555.0000 1.0000
34.1100 562.0000 1.0000
34.1200 539.0000 1.0000
34.1300 539.0000 1.0000
34.1400 528.0000 1.0000
34.1500 565.0000 1.0000
34.1600 503.0000 1.0000
34.1700 537.0000 1.0000
34.1800 523.0000 1.0000
34.1900 538.0000 1.0000
34.2000 532.0000 1.0000
34.2100 507.0000 1.0000
34.2200 537.0000 1.0000
34.2300 517.0000 1.0000
34.2400 507.0000 1.0000
34.2500 512.0000 1.0000
34.2600 550.0000 1.0000
34.2700 537.0000 1.0000
34.2800 501.0000 1.0000
34.2900 523.0000 1.0000
34.3000 523.0000 1.0000
34.3100 498.0000 1.0000
34.3200 510.0000 1.0000
34.3300 490.0000 1.0000
34.3400 517.0000 1.0000
34.3500 536.0000 1.0000
34.3600 525.0000 1.0000
34.3700 509.0000 1.0000
34.3800 511.0000 1.0000
34.3900 492.0000 1.0000
34.4000 478.0000 1.0000
34.4100 502.0000 1.0000
34.4200 511.0000 1.0000
34.4300 519.0000 1.0000
34.4400 493.0000 1.0000
34.4500 524.0000 1.0000
34.4600 499.0000 1.0000
34.4700 519.0000 1.0000
34.4800 500.0000 1.0000
34.4900 494.0000 1.0000
34.5000 482.0000 1.0000
34.5100 468.0000 1.0000
34.5200 501.0000 1.0000
34.5300 446.0000 1.0000
34.5400 498.0000 1.0000
34.5500 507.0000 1.0000
34.5600 491.0000 1.0000
34.5700 498.0000 1.0000
34.5800 490.0000 1.0000
34.5900 467.0000 1.0000
34.6000 492.0000 1.0000
34.6100 504.0000 1.0000
34.6200 516.0000 1.0000
34.6300 492.0000 1.0000
34.6400 475.0000 1.0000
34.6500 456.0000 1.0000
34.6600 500.0000 1.0000
34.6700 476.0000 1.0000
34.6800 496.0000 1.0000
34.6900 472.0000 1.0000
34.7000 500.0000 1.0000
34.7100 521.0000 1.0000
34.7200 510.0000 1.0000
34.7300 489.0000 1.0000
34.7400 486.0000 1.0000
34.7500 487.0000 1.0000
34.7600 498.0000 1.0000
34.7700 480.0000 1.0000
34.7800 496.0000 1.0000
34.7900 497.0000 1.0000
34.8000 476.0000 1.0000
34.8100 471.0000 1.0000
34.8200 469.0000 1.0000
34.8300 463.0000 1.0000
34.8400 477.0000 1.0000
34.8500 483.0000 1.0000
34.8600 467.0000 1.0000
34.8700 475.0000 1.0000
34.8800 432.0000 1.0000
34.8900 468.0000 1.0000
34.9000 453.0000 1.0000
34.9100 502.0000 1.0000
34.9200 481.0000 1.0000
34.9300 465.0000 1.0000
34.9400 458.0000 1.0000
34.9500 483.0000 1.0000
34.9600 482.0000 1.0000
34.9700 478.0000 1.0000
34.9800 476.0000 1.0000
34.9900 490.0000 1.0000
35.0000 466.0000 1.0000
35.0100 497.0000 1.0000
35.0200 492.0000 1.0000
35.0300 492.0000 1.0000
35.0400 451.0000 1.0000
35.0500 497.0000 1.0000
35.0600 476.0000 1.0000
35.0700 464.0000 1.0000
35.0800 502.0000 1.0000
35.0900 463.0000 1.0000
35.1000 460.0000 1.0000
35.1100 440.0000 1.0000
35.1200 490.0000 1.0000
35.1300 483.0000 1.0000
35.1400 493.0000 1.0000
35.1500 460.0000 1.0000
35.1600 474.0000 1.0000
35.1700 470.0000 1.0000
35.1800 478.0000 1.0000
35.1900 465.0000 1.0000
35.2000 500.0000 1.0000
35.2100 471.0000 1.0000
35.2200 497.0000 1.0000
35.2300 513.0000 1.0000
35.2400 490.0000 1.0000
35.2500 516.0000 1.0000
35.2600 510.0000 1.0000
35.2700 529.0000 1.0000
35.2800 492.0000 1.0000
35.2900 490.0000 1.0000
35.3000 494.0000 1.0000
35.3100 501.0000 1.0000
35.3200 507.0000 1.0000
35.3300 476.0000 1.0000
35.3400 505.0000 1.0000
35.3500 525.0000 1.0000
35.3600 516.0000 1.0000
35.3700 522.0000 1.0000
35.3800 530.0000 1.0000
35.3900 568.0000 1.0000
35.4000 557.0000 1.0000
35.4100 583.0000 1.0000
35.4200 567.0000 1.0000
35.4300 606.0000 1.0000
35.4400 587.0000 1.0000
35.4500 596.0000 1.0000
35.4600 611.0000 1.0000
35.4700 636.0000 1.0000
35.4800 694.0000 1.0000
35.4900 684.0000 1.0000
35.5000 705.0000 1.0000
35.5100 766.0000 1.0000
35.5200 739.0000 1.0000
35.5300 854.0000 1.0000
35.5400 879.0000 1.0000
35.5500 812.0000 1.0000
35.5600 838.0000 1.0000
35.5700 893.0000 1.0000
35.5800 918.0000 1.0000
35.5900 850.0000 1.0000
35.6000 890.0000 1.0000
35.6100 861.0000 1.0000
35.6200 861.0000 1.0000
35.6300 827.0000 1.0000
35.6400 851.0000 1.0000
35.6500 787.0000 1.0000
35.6600 763.0000 1.0000
35.6700 782.0000 1.0000
35.6800 754.0000 1.0000
35.6900 718.0000 1.0000
35.7000 675.0000 1.0000
35.7100 623.0000 1.0000
35.7200 634.0000 1.0000
35.7300 627.0000 1.0000
35.7400 583.0000 1.0000
35.7500 607.0000 1.0000
35.7600 602.0000 1.0000
35.7700 578.0000 1.0000
35.7800 559.0000 1.0000
35.7900 527.0000 1.0000
35.8000 531.0000 1.0000
35.8100 539.0000 1.0000
35.8200 500.0000 1.0000
35.8300 490.0000 1.0000
35.8400 486.0000 1.0000
35.8500 495.0000 1.0000
35.8600 503.0000 1.0000
35.8700 486.0000 1.0000
35.8800 453.0000 1.0000
35.8900 468.0000 1.0000
35.9000 474.0000 1.0000
35.9100 461.0000 1.0000
35.9200 467.0000 1.0000
35.9300 488.0000 1.0000
35.9400 505.0000 1.0000
35.9500 445.0000 1.0000
35.9600 464.0000 1.0000
35.9700 441.0000 1.0000
35.9800 466.0000 1.0000
35.9900 442.0000 1.0000
36.0000 467.0000 1.0000
36.0100 432.0000 1.0000
36.0200 415.0000 1.0000
36.0300 452.0000 1.0000
36.0400 453.0000 1.0000
36.0500 469.0000 1.0000
36.0600 487.0000 1.0000
36.0700 443.0000 1.0000
36.0800 438.0000 1.0000
36.0900 396.0000 1.0000
36.1000 447.0000 1.0000
36.1100 462.0000 1.0000
36.1200 429.0000 1.0000
36.1300 452.0000 1.0000
36.1400 447.0000 1.0000
36.1500 435.0000 1.0000
36.1600 430.0000 1.0000
36.1700 444.0000 1.0000
36.1800 456.0000 1.0000
36.1900 452.0000 1.0000
36.2000 443.0000 1.0000
36.2100 437.0000 1.0000
36.2200 397.0000 1.0000
36.2300 465.0000 1.0000
36.2400 475.0000 1.0000
36.2500 431.0000 1.0000
36.2600 477.0000 1.0000
36.2700 436.0000 1.0000
36.2800 440.0000 1.0000
36.2900 491.0000 1.0000
36.3000 470.0000 1.0000
36.3100 426.0000 1.0000
36.3200 446.0000 1.0000
36.3300 445.0000 1.0000
36.3400 402.0000 1.0000
36.3500 450.0000 1.0000
36.3600 432.0000 1.0000
36.3700 442.0000 1.0000
36.3800 457.0000 1.0000
36.3900 445.0000 1.0000
36.4000 428.0000 1.0000
36.4100 440.0000 1.0000
36.4200 446.0000 1.0000
36.4300 449.0000 1.0000
36.4400 430.0000 1.0000
36.4500 442.0000 1.0000
36.4600 458.0000 1.0000
36.4700 441.0000 1.0000
36.4800 424.0000 1.0000
36.4900 442.0000 1.0000
36.5000 459.0000 1.0000
36.5100 448.0000 1.0000
36.5200 467.0000 1.0000
36.5300 432.0000 1.0000
36.5400 447.0000 1.0000
36.5500 448.0000 1.0000
36.5600 427.0000 1.0000
36.5700 441.0000 1.0000
36.5800 445.0000 1.0000
36.5900 427.0000 1.0000
36.6000 472.0000 1.0000
36.6100 437.0000 1.0000
36.6200 418.0000 1.0000
36.6300 401.0000 1.0000
36.6400 407.0000 1.0000
36.6500 436.0000 1.0000
36.6600 434.0000 1.0000
36.6700 446.0000 1.0000
36.6800 415.0000 1.0000
36.6900 453.0000 1.0000
36.7000 423.0000 1.0000
36.7100 412.0000 1.0000
36.7200 436.0000 1.0000
36.7300 430.0000 1.0000
36.7400 442.0000 1.0000
36.7500 394.0000 1.0000
36.7600 425.0000 1.0000
36.7700 462.0000 1.0000
36.7800 435.0000 1.0000
36.7900 451.0000 1.0000
36.8000 485.0000 1.0000
36.8100 448.0000 1.0000
36.8200 429.0000 1.0000
36.8300 456.0000 1.0000
36.8400 426.0000 1.0000
36.8500 448.0000 1.0000
36.8600 411.0000 1.0000
36.8700 430.0000 1.0000
36.8800 424.0000 1.0000
36.8900 434.0000 1.0000
36.9000 442.0000 1.0000
36.9100 435.0000 1.0000
36.9200 406.0000 1.0000
36.9300 399.0000 1.0000
36.9400 428.0000 1.0000
36.9500 440.0000 1.0000
36.9600 471.0000 1.0000
36.9700 445.0000 1.0000
36.9800 435.0000 1.0000
36.9900 446.0000 1.0000
37.0000 438.0000 1.0000
37.0100 476.0000 1.0000
37.0200 462.0000 1.0000
37.0300 451.0000 1.0000
37.0400 451.0000 1.0000
37.0500 444.0000 1.0000
37.0600 424.0000 1.0000
37.0700 462.0000 1.0000
37.0800 471.0000 1.0000
37.0900 461.0000 1.0000
37.1000 442.0000 1.0000
37.1100 448.0000 1.0000
37.1200 415.0000 1.0000
37.1300 433.0000 1.0000
37.1400 461.0000 1.0000
37.1500 460.0000 1.0000
37.1600 477.0000 1.0000
37.1700 442.0000 1.0000
37.1800 449.0000 1.0000
37.1900 462.0000 1.0000
37.2000 454.0000 1.0000
37.2100 457.0000 1.0000
37.2200 452.0000 1.0000
37.2300 464.0000 1.0000
37.2400 480.0000 1.0000
37.2500 465.0000 1.0000
37.2600 488.0000 1.0000
37.2700 480.0000 1.0000
37.2800 443.0000 1.0000
37.2900 484.0000 1.0000
37.3000 474.0000 1.0000
37.3100 503.0000 1.0000
37.3200 525.0000 1.0000
37.3300 511.0000 1.0000
37.3400 506.0000 1.0000
37.3500 503.0000 1.0000
37.3600 503.0000 1.0000
37.3700 480.0000 1.0000
37.3800 542.0000 1.0000
37.3900 540.0000 1.0000
37.4000 587.0000 1.0000
37.4100 605.0000 1.0000
37.4200 635.0000 1.0000
37.4300 637.0000 1.0000
37.4400 626.0000 1.0000
37.4500 665.0000 1.0000
37.4600 666.0000 1.0000
37.4700 659.0000 1.0000
37.4800 727.0000 1.0000
37.4900 779.0000 1.0000
37.5000 761.0000 1.0000
37.5100 783.0000 1.0000
37.5200 820.0000 1.0000
37.5300 854.0000 1.0000
37.5400 932.0000 1.0000
37.5500 1012.0000 1.0000
37.5600 1007.0000 1.0000
37.5700 1144.0000 1.0000
37.5800 1216.0000 1.0000
37.5900 1321.0000 1.0000
37.6000 1311.0000 1.0000
37.6100 1407.0000 1.0000
37.6200 1494.0000 1.0000
37.6300 1615.0000 1.0000
37.6400 1692.0000 1.0000
37.6500 1822.0000 1.0000
37.6600 1929.0000 1.0000
37.6700 2005.0000 1.0000
37.6800 2073.0000 1.0000
37.6900 2103.0000 1.0000
37.7000 2154.0000 1.0000
37.7100 2163.0000 1.0000
37.7200 2190.0000 1.0000
37.7300 2129.0000 1.0000
37.7400 2235.0000 1.0000
37.7500 2159.0000 1.0000
37.7600 2145.0000 1.0000
37.7700 2097.0000 1.0000
37.7800 1980.0000 1.0000
37.7900 1926.0000 1.0000
37.8000 1886.0000 1.0000
37.8100 1787.0000 1.0000
37.8200 1636.0000 1.0000
37.8300 1582.0000 1.0000
37.8400 1520.0000 1.0000
37.8500 1479.0000 1.0000
37.8600 1358.0000 1.0000
37.8700 1328.0000 1.0000
37.8800 1200.0000 1.0000
37.8900 1193.0000 1.0000
37.9000 1115.0000 1.0000
37.9100 1054.0000 1.0000
37.9200 953.0000 1.0000
37.9300 893.0000 1.0000
37.9400 851.0000 1.0000
37.9500 776.0000 1.0000
37.9600 797.0000 1.0000
37.9700 763.0000 1.0000
37.9800 728.0000 1.0000
37.9900 635.0000 1.0000
38.0000 652.0000 1.0000
38.0100 654.0000 1.0000
38.0200 636.0000 1.0000
38.0300 596.0000 1.0000
38.0400 586.0000 1.0000
38.0500 548.0000 1.0000
38.0600 535.0000 1.0000
38.0700 551.0000 1.0000
38.0800 564.0000 1.0000
38.0900 516.0000 1.0000
38.1000 482.0000 1.0000
38.1100 517.0000 1.0000
38.1200 481.0000 1.0000
38.1300 471.0000 1.0000
38.1400 487.0000 1.0000
38.1500 480.0000 1.0000
38.1600 482.0000 1.0000
38.1700 503.0000 1.0000
38.1800 472.0000 1.0000
38.1900 482.0000 1.0000
38.2000 419.0000 1.0000
38.2100 479.0000 1.0000
38.2200 471.0000 1.0000
38.2300 436.0000 1.0000
38.2400 392.0000 1.0000
38.2500 438.0000 1.0000
38.2600 431.0000 1.0000
38.2700 406.0000 1.0000
38.2800 407.0000 1.0000
38.2900 414.0000 1.0000
38.3000 445.0000 1.0000
38.3100 442.0000 1.0000
38.3200 418.0000 1.0000
38.3300 414.0000 1.0000
38.3400 404.0000 1.0000
38.3500 422.0000 1.0000
38.3600 409.0000 1.0000
38.3700 422.0000 1.0000
38.3800 375.0000 1.0000
38.3900 403.0000 1.0000
38.4000 406.0000 1.0000
38.4100 375.0000 1.0000
38.4200 399.0000 1.0000
38.4300 396.0000 1.0000
38.4400 424.0000 1.0000
38.4500 438.0000 1.0000
38.4600 367.0000 1.0000
38.4700 392.0000 1.0000
38.4800 412.0000 1.0000
38.4900 409.0000 1.0000
38.5000 382.0000 1.0000
38.5100 387.0000 1.0000
38.5200 434.0000 1.0000
38.5300 390.0000 1.0000
38.5400 407.0000 1.0000
38.5500 415.0000 1.0000
38.5600 405.0000 1.0000
38.5700 399.0000 1.0000
38.5800 392.0000 1.0000
38.5900 379.0000 1.0000
38.6000 386.0000 1.0000
38.6100 390.0000 1.0000
38.6200 421.0000 1.0000
38.6300 399.0000 1.0000
38.6400 385.0000 1.0000
38.6500 452.0000 1.0000
38.6600 397.0000 1.0000
38.6700 417.0000 1.0000
38.6800 392.0000 1.0000
38.6900 425.0000 1.0000
38.7000 374.0000 1.0000
38.7100 409.0000 1.0000
38.7200 398.0000 1.0000
38.7300 429.0000 1.0000
38.7400 390.0000 1.0000
38.7500 406.0000 1.0000
38.7600 442.0000 1.0000
38.7700 413.0000 1.0000
38.7800 432.0000 1.0000
38.7900 412.0000 1.0000
38.8000 440.0000 1.0000
38.8100 432.0000 1.0000
38.8200 394.0000 1.0000
38.8300 420.0000 1.0000
38.8400 393.0000 1.0000
38.8500 402.0000 1.0000
38.8600 419.0000 1.0000
38.8700 407.0000 1.0000
38.8800 409.0000 1.0000
38.8900 405.0000 1.0000
38.9000 399.0000 1.0000
38.9100 411.0000 1.0000
38.9200 389.0000 1.0000
38.9300 392.0000 1.0000
38.9400 385.0000 1.0000
38.9500 408.0000 1.0000
38.9600 403.0000 1.0000
38.9700 373.0000 1.0000
38.9800 413.0000 1.0000
38.9900 373.0000 1.0000
39.0000 399.0000 1.0000
39.0100 415.0000 1.0000
39.0200 396.0000 1.0000
39.0300 404.0000 1.0000
39.0400 377.0000 1.0000
39.0500 385.0000 1.0000
39.0600 380.0000 1.0000
39.0700 383.0000 1.0000
39.0800 384.0000 1.0000
39.0900 394.0000 1.0000
39.1000 366.0000 1.0000
39.1100 377.0000 1.0000
39.1200 360.0000 1.0000
39.1300 371.0000 1.0000
39.1400 395.0000 1.0000
39.1500 372.0000 1.0000
39.1600 353.0000 1.0000
39.1700 380.0000 1.0000
39.1800 376.0000 1.0000
39.1900 386.0000 1.0000
39.2000 369.0000 1.0000
39.2100 357.0000 1.0000
39.2200 368.0000 1.0000
39.2300 407.0000 1.0000
39.2400 370.0000 1.0000
39.2500 371.0000 1.0000
39.2600 362.0000 1.0000
39.2700 404.0000 1.0000
39.2800 378.0000 1.0000
39.2900 368.0000 1.0000
39.3000 390.0000 1.0000
39.3100 390.0000 1.0000
39.3200 382.0000 1.0000
39.3300 364.0000 1.0000
39.3400 357.0000 1.0000
39.3500 360.0000 1.0000
39.3600 368.0000 1.0000
39.3700 358.0000 1.0000
39.3800 387.0000 1.0000
39.3900 390.0000 1.0000
39.4000 376.0000 1.0000
39.4100 383.0000 1.0000
39.4200 344.0000 1.0000
39.4300 369.0000 1.0000
39.4400 395.0000 1.0000
39.4500 366.0000 1.0000
39.4600 392.0000 1.0000
39.4700 381.0000 1.0000
39.4800 358.0000 1.0000
39.4900 372.0000 1.0000
39.5000 379.0000 1.0000
39.5100 349.0000 1.0000
39.5200 396.0000 1.0000
39.5300 388.0000 1.0000
39.5400 380.0000 1.0000
39.5500 343.0000 1.0000
39.5600 370.0000 1.0000
39.5700 386.0000 1.0000
39.5800 363.0000 1.0000
39.5900 348.0000 1.0000
39.6000 353.0000 1.0000
39.6100 331.0000 1.0000
39.6200 378.0000 1.0000
39.6300 366.0000 1.0000
39.6400 372.0000 1.0000
39.6500 358.0000 1.0000
39.6600 379.0000 1.0000
39.6700 384.0000 1.0000
39.6800 361.0000 1.0000
39.6900 404.0000 1.0000
39.7000 366.0000 1.0000
39.7100 373.0000 1.0000
39.7200 396.0000 1.0000
39.7300 377.0000 1.0000
39.7400 378.0000 1.0000
39.7500 378.0000 1.0000
39.7600 362.0000 1.0000
39.7700 342.0000 1.0000
39.7800 350.0000 1.0000
39.7900 364.0000 1.0000
39.8000 347.0000 1.0000
39.8100 368.0000 1.0000
39.8200 382.0000 1.0000
39.8300 344.0000 1.0000
39.8400 357.0000 1.0000
39.8500 386.0000 1.0000
39.8600 357.0000 1.0000
39.8700 373.0000 1.0000
39.8800 353.0000 1.0000
39.8900 372.0000 1.0000
39.9000 400.0000 1.0000
39.9100 389.0000 1.0000
39.9200 352.0000 1.0000
39.9300 362.0000 1.0000
39.9400 356.0000 1.0000
39.9500 374.0000 1.0000
39.9600 357.0000 1.0000
39.9700 370.0000 1.0000
39.9800 395.0000 1.0000
39.9900 347.0000 1.0000
40.0000 333.0000 1.0000
40.0100 379.0000 1.0000
40.0200 386.0000 1.0000
40.0300 375.0000 1.0000
40.0400 344.0000 1.0000
40.0500 373.0000 1.0000
40.0600 349.0000 1.0000
40.0700 344.0000 1.0000
40.0800 372.0000 1.0000
40.0900 353.0000 1.0000
40.1000 356.0000 1.0000
40.1100 356.0000 1.0000
40.1200 362.0000 1.0000
40.1300 360.0000 1.0000
40.1400 405.0000 1.0000
40.1500 379.0000 1.0000
40.1600 372.0000 1.0000
40.1700 391.0000 1.0000
40.1800 357.0000 1.0000
40.1900 335.0000 1.0000
40.2000 370.0000 1.0000
40.2100 345.0000 1.0000
40.2200 358.0000 1.0000
40.2300 372.0000 1.0000
40.2400 354.0000 1.0000
40.2500 355.0000 1.0000
40.2600 357.0000 1.0000
40.2700 364.0000 1.0000
40.2800 359.0000 1.0000
40.2900 343.0000 1.0000
40.3000 361.0000 1.0000
40.3100 345.0000 1.0000
40.3200 316.0000 1.0000
40.3300 347.0000 1.0000
40.3400 376.0000 1.0000
40.3500 367.0000 1.0000
40.3600 376.0000 1.0000
40.3700 347.0000 1.0000
40.3800 378.0000 1.0000
40.3900 366.0000 1.0000
40.4000 340.0000 1.0000
40.4100 377.0000 1.0000
40.4200 416.0000 1.0000
40.4300 421.0000 1.0000
40.4400 418.0000 1.0000
40.4500 399.0000 1.0000
40.4600 381.0000 1.0000
40.4700 415.0000 1.0000
40.4800 381.0000 1.0000
40.4900 404.0000 1.0000
40.5000 379.0000 1.0000
40.5100 393.0000 1.0000
40.5200 404.0000 1.0000
40.5300 427.0000 1.0000
40.5400 380.0000 1.0000
40.5500 383.0000 1.0000
40.5600 383.0000 1.0000
40.5700 425.0000 1.0000
40.5800 398.0000 1.0000
40.5900 422.0000 1.0000
40.6000 416.0000 1.0000
40.6100 415.0000 1.0000
40.6200 387.0000 1.0000
40.6300 380.0000 1.0000
40.6400 413.0000 1.0000
40.6500 378.0000 1.0000
40.6600 369.0000 1.0000
40.6700 376.0000 1.0000
40.6800 404.0000 1.0000
40.6900 396.0000 1.0000
40.7000 386.0000 1.0000
40.7100 423.0000 1.0000
40.7200 393.0000 1.0000
40.7300 378.0000 1.0000
40.7400 361.0000 1.0000
40.7500 379.0000 1.0000
40.7600 372.0000 1.0000
40.7700 404.0000 1.0000
40.7800 380.0000 1.0000
40.7900 384.0000 1.0000
40.8000 402.0000 1.0000
40.8100 376.0000 1.0000
40.8200 375.0000 1.0000
40.8300 383.0000 1.0000
40.8400 388.0000 1.0000
40.8500 384.0000 1.0000
40.8600 378.0000 1.0000
40.8700 388.0000 1.0000
40.8800 398.0000 1.0000
40.8900 366.0000 1.0000
40.9000 379.0000 1.0000
40.9100 365.0000 1.0000
40.9200 364.0000 1.0000
40.9300 379.0000 1.0000
40.9400 368.0000 1.0000
40.9500 390.0000 1.0000
40.9600 404.0000 1.0000
40.9700 381.0000 1.0000
40.9800 349.0000 1.0000
40.9900 365.0000 1.0000
41.0000 364.0000 1.0000
41.0100 354.0000 1.0000
41.0200 404.0000 1.0000
41.0300 341.0000 1.0000
41.0400 373.0000 1.0000
41.0500 354.0000 1.0000
41.0600 362.0000 1.0000
41.0700 395.0000 1.0000
41.0800 367.0000 1.0000
41.0900 374.0000 1.0000
41.1000 348.0000 1.0000
41.1100 361.0000 1.0000
41.1200 345.0000 1.0000
41.1300 327.0000 1.0000
41.1400 347.0000 1.0000
41.1500 366.0000 1.0000
41.1600 361.0000 1.0000
41.1700 357.0000 1.0000
41.1800 354.0000 1.0000
41.1900 340.0000 1.0000
41.2000 348.0000 1.0000
41.2100 362.0000 1.0000
41.2200 339.0000 1.0000
41.2300 360.0000 1.0000
41.2400 368.0000 1.0000
41.2500 327.0000 1.0000
41.2600 354.0000 1.0000
41.2700 342.0000 1.0000
41.2800 374.0000 1.0000
41.2900 388.0000 1.0000
41.3000 367.0000 1.0000
41.3100 378.0000 1.0000
41.3200 350.0000 1.0000
41.3300 344.0000 1.0000
41.3400 354.0000 1.0000
41.3500 337.0000 1.0000
41.3600 401.0000 1.0000
41.3700 340.0000 1.0000
41.3800 341.0000 1.0000
41.3900 374.0000 1.0000
41.4000 348.0000 1.0000
41.4100 352.0000 1.0000
41.4200 372.0000 1.0000
41.4300 369.0000 1.0000
41.4400 336.0000 1.0000
41.4500 342.0000 1.0000
41.4600 340.0000 1.0000
41.4700 341.0000 1.0000
41.4800 326.0000 1.0000
41.4900 322.0000 1.0000
41.5000 312.0000 1.0000
41.5100 337.0000 1.0000
41.5200 322.0000 1.0000
41.5300 347.0000 1.0000
41.5400 344.0000 1.0000
41.5500 365.0000 1.0000
41.5600 352.0000 1.0000
41.5700 341.0000 1.0000
41.5800 320.0000 1.0000
41.5900 349.0000 1.0000
41.6000 332.0000 1.0000
41.6100 343.0000 1.0000
41.6200 340.0000 1.0000
41.6300 359.0000 1.0000
41.6400 376.0000 1.0000
41.6500 326.0000 1.0000
41.6600 369.0000 1.0000
41.6700 326.0000 1.0000
41.6800 324.0000 1.0000
41.6900 342.0000 1.0000
41.7000 360.0000 1.0000
41.7100 354.0000 1.0000
41.7200 338.0000 1.0000
41.7300 361.0000 1.0000
41.7400 358.0000 1.0000
41.7500 332.0000 1.0000
41.7600 341.0000 1.0000
41.7700 331.0000 1.0000
41.7800 339.0000 1.0000
41.7900 338.0000 1.0000
41.8000 334.0000 1.0000
41.8100 335.0000 1.0000
41.8200 363.0000 1.0000
41.8300 368.0000 1.0000
41.8400 352.0000 1.0000
41.8500 335.0000 1.0000
41.8600 363.0000 1.0000
41.8700 354.0000 1.0000
41.8800 362.0000 1.0000
41.8900 334.0000 1.0000
41.9000 341.0000 1.0000
41.9100 371.0000 1.0000
41.9200 334.0000 1.0000
41.9300 345.0000 1.0000
41.9400 351.0000 1.0000
41.9500 328.0000 1.0000
41.9600 340.0000 1.0000
41.9700 354.0000 1.0000
41.9800 363.0000 1.0000
41.9900 342.0000 1.0000
42.0000 375.0000 1.0000
42.0100 324.0000 1.0000
42.0200 338.0000 1.0000
42.0300 336.0000 1.0000
42.0400 356.0000 1.0000
42.0500 359.0000 1.0000
42.0600 356.0000 1.0000
42.0700 355.0000 1.0000
42.0800 351.0000 1.0000
42.0900 364.0000 1.0000
42.1000 366.0000 1.0000
42.1100 363.0000 1.0000
42.1200 365.0000 1.0000
42.1300 342.0000 1.0000
42.1400 373.0000 1.0000
42.1500 343.0000 1.0000
42.1600 361.0000 1.0000
42.1700 380.0000 1.0000
42.1800 367.0000 1.0000
42.1900 370.0000 1.0000
42.2000 377.0000 1.0000
42.2100 348.0000 1.0000
42.2200 364.0000 1.0000
42.2300 372.0000 1.0000
42.2400 373.0000 1.0000
42.2500 363.0000 1.0000
42.2600 342.0000 1.0000
42.2700 326.0000 1.0000
42.2800 356.0000 1.0000
42.2900 379.0000 1.0000
42.3000 360.0000 1.0000
42.3100 319.0000 1.0000
42.3200 330.0000 1.0000
42.3300 386.0000 1.0000
42.3400 387.0000 1.0000
42.3500 409.0000 1.0000
42.3600 398.0000 1.0000
42.3700 400.0000 1.0000
42.3800 370.0000 1.0000
42.3900 371.0000 1.0000
42.4000 370.0000 1.0000
42.4100 395.0000 1.0000
42.4200 415.0000 1.0000
42.4300 387.0000 1.0000
42.4400 398.0000 1.0000
42.4500 396.0000 1.0000
42.4600 375.0000 1.0000
42.4700 364.0000 1.0000
42.4800 377.0000 1.0000
42.4900 372.0000 1.0000
42.5000 379.0000 1.0000
42.5100 386.0000 1.0000
42.5200 354.0000 1.0000
42.5300 362.0000 1.0000
42.5400 386.0000 1.0000
42.5500 373.0000 1.0000
42.5600 363.0000 1.0000
42.5700 344.0000 1.0000
42.5800 366.0000 1.0000
42.5900 364.0000 1.0000
42.6000 369.0000 1.0000
42.6100 337.0000 1.0000
42.6200 348.0000 1.0000
42.6300 340.0000 1.0000
42.6400 372.0000 1.0000
42.6500 369.0000 1.0000
42.6600 336.0000 1.0000
42.6700 373.0000 1.0000
42.6800 377.0000 1.0000
42.6900 369.0000 1.0000
42.7000 351.0000 1.0000
42.7100 356.0000 1.0000
42.7200 350.0000 1.0000
42.7300 340.0000 1.0000
42.7400 340.0000 1.0000
42.7500 351.0000 1.0000
42.7600 353.0000 1.0000
42.7700 365.0000 1.0000
42.7800 355.0000 1.0000
42.7900 325.0000 1.0000
42.8000 326.0000 1.0000
42.8100 350.0000 1.0000
42.8200 320.0000 1.0000
42.8300 311.0000 1.0000
42.8400 353.0000 1.0000
42.8500 327.0000 1.0000
42.8600 337.0000 1.0000
42.8700 352.0000 1.0000
42.8800 334.0000 1.0000
42.8900 332.0000 1.0000
42.9000 356.0000 1.0000
42.9100 342.0000 1.0000
42.9200 339.0000 1.0000
42.9300 332.0000 1.0000
42.9400 344.0000 1.0000
42.9500 346.0000 1.0000
42.9600 335.0000 1.0000
42.9700 342.0000 1.0000
42.9800 323.0000 1.0000
42.9900 346.0000 1.0000
43.0000 350.0000 1.0000
43.0100 344.0000 1.0000
43.0200 360.0000 1.0000
43.0300 340.0000 1.0000
43.0400 318.0000 1.0000
43.0500 340.0000 1.0000
43.0600 344.0000 1.0000
43.0700 346.0000 1.0000
43.0800 331.0000 1.0000
43.0900 357.0000 1.0000
43.1000 359.0000 1.0000
43.1100 339.0000 1.0000
43.1200 339.0000 1.0000
43.1300 326.0000 1.0000
43.1400 347.0000 1.0000
43.1500 358.0000 1.0000
43.1600 338.0000 1.0000
43.1700 328.0000 1.0000
43.1800 329.0000 1.0000
43.1900 338.0000 1.0000
43.2000 350.0000 1.0000
43.2100 352.0000 1.0000
43.2200 366.0000 1.0000
43.2300 346.0000 1.0000
43.2400 352.0000 1.0000
43.2500 370.0000 1.0000
43.2600 335.0000 1.0000
43.2700 346.0000 1.0000
43.2800 337.0000 1.0000
43.2900 320.0000 1.0000
43.3000 341.0000 1.0000
43.3100 350.0000 1.0000
43.3200 361.0000 1.0000
43.3300 354.0000 1.0000
43.3400 327.0000 1.0000
43.3500 323.0000 1.0000
43.3600 331.0000 1.0000
43.3700 323.0000 1.0000
43.3800 344.0000 1.0000
43.3900 356.0000 1.0000
43.4000 336.0000 1.0000
43.4100 360.0000 1.0000
43.4200 380.0000 1.0000
43.4300 304.0000 1.0000
43.4400 322.0000 1.0000
43.4500 343.0000 1.0000
43.4600 335.0000 1.0000
43.4700 332.0000 1.0000
43.4800 338.0000 1.0000
43.4900 343.0000 1.0000
43.5000 356.0000 1.0000
43.5100 370.0000 1.0000
43.5200 359.0000 1.0000
43.5300 347.0000 1.0000
43.5400 344.0000 1.0000
43.5500 349.0000 1.0000
43.5600 339.0000 1.0000
43.5700 343.0000 1.0000
43.5800 359.0000 1.0000
43.5900 345.0000 1.0000
43.6000 352.0000 1.0000
43.6100 348.0000 1.0000
43.6200 333.0000 1.0000
43.6300 348.0000 1.0000
43.6400 340.0000 1.0000
43.6500 354.0000 1.0000
43.6600 330.0000 1.0000
43.6700 365.0000 1.0000
43.6800 358.0000 1.0000
43.6900 344.0000 1.0000
43.7000 350.0000 1.0000
43.7100 322.0000 1.0000
43.7200 341.0000 1.0000
43.7300 326.0000 1.0000
43.7400 340.0000 1.0000
43.7500 327.0000 1.0000
43.7600 318.0000 1.0000
43.7700 337.0000 1.0000
43.7800 316.0000 1.0000
43.7900 327.0000 1.0000
43.8000 336.0000 1.0000
43.8100 311.0000 1.0000
43.8200 336.0000 1.0000
43.8300 307.0000 1.0000
43.8400 330.0000 1.0000
43.8500 355.0000 1.0000
43.8600 309.0000 1.0000
43.8700 339.0000 1.0000
43.8800 354.0000 1.0000
43.8900 355.0000 1.0000
43.9000 337.0000 1.0000
43.9100 354.0000 1.0000
43.9200 333.0000 1.0000
43.9300 319.0000 1.0000
43.9400 358.0000 1.0000
43.9500 367.0000 1.0000
43.9600 340.0000 1.0000
43.9700 334.0000 1.0000
43.9800 334.0000 1.0000
43.9900 341.0000 1.0000
44.0000 327.0000 1.0000
44.0100 324.0000 1.0000
44.0200 340.0000 1.0000
44.0300 309.0000 1.0000
44.0400 324.0000 1.0000
44.0500 315.0000 1.0000
44.0600 314.0000 1.0000
44.0700 328.0000 1.0000
44.0800 313.0000 1.0000
44.0900 305.0000 1.0000
44.1000 330.0000 1.0000
44.1100 309.0000 1.0000
44.1200 313.0000 1.0000
44.1300 310.0000 1.0000
44.1400 305.0000 1.0000
44.1500 310.0000 1.0000
44.1600 343.0000 1.0000
44.1700 332.0000 1.0000
44.1800 301.0000 1.0000
44.1900 334.0000 1.0000
44.2000 322.0000 1.0000
44.2100 328.0000 1.0000
44.2200 327.0000 1.0000
44.2300 341.0000 1.0000
44.2400 369.0000 1.0000
44.2500 354.0000 1.0000
44.2600 346.0000 1.0000
44.2700 340.0000 1.0000
44.2800 331.0000 1.0000
44.2900 350.0000 1.0000
44.3000 320.0000 1.0000
44.3100 318.0000 1.0000
44.3200 353.0000 1.0000
44.3300 336.0000 1.0000
44.3400 324.0000 1.0000
44.3500 323.0000 1.0000
44.3600 315.0000 1.0000
44.3700 362.0000 1.0000
44.3800 354.0000 1.0000
44.3900 365.0000 1.0000
44.4000 333.0000 1.0000
44.4100 319.0000 1.0000
44.4200 341.0000 1.0000
44.4300 336.0000 1.0000
44.4400 317.0000 1.0000
44.4500 328.0000 1.0000
44.4600 351.0000 1.0000
44.4700 340.0000 1.0000
44.4800 331.0000 1.0000
44.4900 344.0000 1.0000
44.5000 317.0000 1.0000
44.5100 345.0000 1.0000
44.5200 325.0000 1.0000
44.5300 314.0000 1.0000
44.5400 311.0000 1.0000
44.5500 313.0000 1.0000
44.5600 341.0000 1.0000
44.5700 335.0000 1.0000
44.5800 314.0000 1.0000
44.5900 309.0000 1.0000
44.6000 323.0000 1.0000
44.6100 336.0000 1.0000
44.6200 331.0000 1.0000
44.6300 314.0000 1.0000
44.6400 356.0000 1.0000
44.6500 325.0000 1.0000
44.6600 327.0000 1.0000
44.6700 329.0000 1.0000
44.6800 332.0000 1.0000
44.6900 338.0000 1.0000
44.7000 312.0000 1.0000
44.7100 336.0000 1.0000
44.7200 329.0000 1.0000
44.7300 311.0000 1.0000
44.7400 314.0000 1.0000
44.7500 340.0000 1.0000
44.7600 310.0000 1.0000
44.7700 291.0000 1.0000
44.7800 324.0000 1.0000
44.7900 308.0000 1.0000
44.8000 326.0000 1.0000
44.8100 312.0000 1.0000
44.8200 311.0000 1.0000
44.8300 337.0000 1.0000
44.8400 332.0000 1.0000
44.8500 318.0000 1.0000
44.8600 338.0000 1.0000
44.8700 343.0000 1.0000
44.8800 334.0000 1.0000
44.8900 353.0000 1.0000
44.9000 319.0000 1.0000
44.9100 323.0000 1.0000
44.9200 330.0000 1.0000
44.9300 315.0000 1.0000
44.9400 309.0000 1.0000
44.9500 326.0000 1.0000
44.9600 347.0000 1.0000
44.9700 313.0000 1.0000
44.9800 309.0000 1.0000
44.9900 335.0000 1.0000
45.0000 303.0000 1.0000
45.0100 349.0000 1.0000
45.0200 375.0000 1.0000
45.0300 336.0000 1.0000
45.0400 331.0000 1.0000
45.0500 347.0000 1.0000
45.0600 337.0000 1.0000
45.0700 319.0000 1.0000
45.0800 316.0000 1.0000
45.0900 334.0000 1.0000
45.1000 339.0000 1.0000
45.1100 338.0000 1.0000
45.1200 309.0000 1.0000
45.1300 347.0000 1.0000
45.1400 343.0000 1.0000
45.1500 348.0000 1.0000
45.1600 320.0000 1.0000
45.1700 299.0000 1.0000
45.1800 313.0000 1.0000
45.1900 335.0000 1.0000
45.2000 318.0000 1.0000
45.2100 317.0000 1.0000
45.2200 327.0000 1.0000
45.2300 336.0000 1.0000
45.2400 342.0000 1.0000
45.2500 359.0000 1.0000
45.2600 339.0000 1.0000
45.2700 318.0000 1.0000
45.2800 330.0000 1.0000
45.2900 325.0000 1.0000
45.3000 330.0000 1.0000
45.3100 337.0000 1.0000
45.3200 329.0000 1.0000
45.3300 327.0000 1.0000
45.3400 298.0000 1.0000
45.3500 339.0000 1.0000
45.3600 348.0000 1.0000
45.3700 351.0000 1.0000
45.3800 338.0000 1.0000
45.3900 339.0000 1.0000
45.4000 343.0000 1.0000
45.4100 347.0000 1.0000
45.4200 330.0000 1.0000
45.4300 326.0000 1.0000
45.4400 313.0000 1.0000
45.4500 306.0000 1.0000
45.4600 344.0000 1.0000
45.4700 319.0000 1.0000
45.4800 309.0000 1.0000
45.4900 306.0000 1.0000
45.5000 330.0000 1.0000
45.5100 328.0000 1.0000
45.5200 315.0000 1.0000
45.5300 309.0000 1.0000
45.5400 320.0000 1.0000
45.5500 307.0000 1.0000
45.5600 320.0000 1.0000
45.5700 311.0000 1.0000
45.5800 297.0000 1.0000
45.5900 314.0000 1.0000
45.6000 318.0000 1.0000
45.6100 307.0000 1.0000
45.6200 334.0000 1.0000
45.6300 335.0000 1.0000
45.6400 323.0000 1.0000
45.6500 326.0000 1.0000
45.6600 330.0000 1.0000
45.6700 338.0000 1.0000
45.6800 307.0000 1.0000
45.6900 333.0000 1.0000
45.7000 345.0000 1.0000
45.7100 327.0000 1.0000
45.7200 301.0000 1.0000
45.7300 319.0000 1.0000
45.7400 310.0000 1.0000
45.7500 313.0000 1.0000
45.7600 317.0000 1.0000
45.7700 333.0000 1.0000
45.7800 325.0000 1.0000
45.7900 320.0000 1.0000
45.8000 323.0000 1.0000
45.8100 352.0000 1.0000
45.8200 295.0000 1.0000
45.8300 309.0000 1.0000
45.8400 325.0000 1.0000
45.8500 329.0000 1.0000
45.8600 323.0000 1.0000
45.8700 320.0000 1.0000
45.8800 309.0000 1.0000
45.8900 312.0000 1.0000
45.9000 293.0000 1.0000
45.9100 322.0000 1.0000
45.9200 335.0000 1.0000
45.9300 328.0000 1.0000
45.9400 302.0000 1.0000
45.9500 318.0000 1.0000
45.9600 309.0000 1.0000
45.9700 286.0000 1.0000
45.9800 340.0000 1.0000
45.9900 320.0000 1.0000
46.0000 326.0000 1.0000
46.0100 302.0000 1.0000
46.0200 288.0000 1.0000
46.0300 299.0000 1.0000
46.0400 308.0000 1.0000
46.0500 338.0000 1.0000
46.0600 358.0000 1.0000
46.0700 316.0000 1.0000
46.0800 320.0000 1.0000
46.0900 315.0000 1.0000
46.1000 317.0000 1.0000
46.1100 321.0000 1.0000
46.1200 286.0000 1.0000
46.1300 322.0000 1.0000
46.1400 333.0000 1.0000
46.1500 328.0000 1.0000
46.1600 309.0000 1.0000
46.1700 336.0000 1.0000
46.1800 328.0000 1.0000
46.1900 320.0000 1.0000
46.2000 300.0000 1.0000
46.2100 345.0000 1.0000
46.2200 330.0000 1.0000
46.2300 302.0000 1.0000
46.2400 311.0000 1.0000
46.2500 346.0000 1.0000
46.2600 302.0000 1.0000
46.2700 310.0000 1.0000
46.2800 294.0000 1.0000
46.2900 303.0000 1.0000
46.3000 333.0000 1.0000
46.3100 360.0000 1.0000
46.3200 308.0000 1.0000
46.3300 336.0000 1.0000
46.3400 321.0000 1.0000
46.3500 320.0000 1.0000
46.3600 302.0000 1.0000
46.3700 319.0000 1.0000
46.3800 289.0000 1.0000
46.3900 309.0000 1.0000
46.4000 329.0000 1.0000
46.4100 300.0000 1.0000
46.4200 307.0000 1.0000
46.4300 317.0000 1.0000
46.4400 309.0000 1.0000
46.4500 288.0000 1.0000
46.4600 322.0000 1.0000
46.4700 334.0000 1.0000
46.4800 304.0000 1.0000
46.4900 296.0000 1.0000
46.5000 316.0000 1.0000
46.5100 323.0000 1.0000
46.5200 306.0000 1.0000
46.5300 336.0000 1.0000
46.5400 293.0000 1.0000
46.5500 303.0000 1.0000
46.5600 296.0000 1.0000
46.5700 309.0000 1.0000
46.5800 297.0000 1.0000
46.5900 326.0000 1.0000
46.6000 327.0000 1.0000
46.6100 305.0000 1.0000
46.6200 283.0000 1.0000
46.6300 318.0000 1.0000
46.6400 314.0000 1.0000
46.6500 315.0000 1.0000
46.6600 298.0000 1.0000
46.6700 308.0000 1.0000
46.6800 328.0000 1.0000
46.6900 282.0000 1.0000
46.7000 288.0000 1.0000
46.7100 293.0000 1.0000
46.7200 283.0000 1.0000
46.7300 298.0000 1.0000
46.7400 313.0000 1.0000
46.7500 305.0000 1.0000
46.7600 322.0000 1.0000
46.7700 316.0000 1.0000
46.7800 284.0000 1.0000
46.7900 291.0000 1.0000
46.8000 306.0000 1.0000
46.8100 322.0000 1.0000
46.8200 311.0000 1.0000
46.8300 295.0000 1.0000
46.8400 319.0000 1.0000
46.8500 322.0000 1.0000
46.8600 323.0000 1.0000
46.8700 309.0000 1.0000
46.8800 308.0000 1.0000
46.8900 289.0000 1.0000
46.9000 314.0000 1.0000
46.9100 293.0000 1.0000
46.9200 294.0000 1.0000
46.9300 288.0000 1.0000
46.9400 316.0000 1.0000
46.9500 314.0000 1.0000
46.9600 304.0000 1.0000
46.9700 296.0000 1.0000
46.9800 313.0000 1.0000
46.9900 333.0000 1.0000
47.0000 308.0000 1.0000
47.0100 327.0000 1.0000
47.0200 321.0000 1.0000
47.0300 297.0000 1.0000
47.0400 310.0000 1.0000
47.0500 296.0000 1.0000
47.0600 293.0000 1.0000
47.0700 292.0000 1.0000
47.0800 312.0000 1.0000
47.0900 297.0000 1.0000
47.1000 319.0000 1.0000
47.1100 297.0000 1.0000
47.1200 328.0000 1.0000
47.1300 310.0000 1.0000
47.1400 295.0000 1.0000
47.1500 301.0000 1.0000
47.1600 300.0000 1.0000
47.1700 310.0000 1.0000
47.1800 286.0000 1.0000
47.1900 309.0000 1.0000
47.2000 319.0000 1.0000
47.2100 294.0000 1.0000
47.2200 315.0000 1.0000
47.2300 311.0000 1.0000
47.2400 325.0000 1.0000
47.2500 302.0000 1.0000
47.2600 299.0000 1.0000
47.2700 314.0000 1.0000
47.2800 298.0000 1.0000
47.2900 303.0000 1.0000
47.3000 296.0000 1.0000
47.3100 333.0000 1.0000
47.3200 307.0000 1.0000
47.3300 316.0000 1.0000
47.3400 327.0000 1.0000
47.3500 340.0000 1.0000
47.3600 291.0000 1.0000
47.3700 298.0000 1.0000
47.3800 307.0000 1.0000
47.3900 332.0000 1.0000
47.4000 311.0000 1.0000
47.4100 311.0000 1.0000
47.4200 318.0000 1.0000
47.4300 272.0000 1.0000
47.4400 266.0000 1.0000
47.4500 308.0000 1.0000
47.4600 293.0000 1.0000
47.4700 285.0000 1.0000
47.4800 293.0000 1.0000
47.4900 289.0000 1.0000
47.5000 301.0000 1.0000
47.5100 309.0000 1.0000
47.5200 284.0000 1.0000
47.5300 313.0000 1.0000
47.5400 306.0000 1.0000
47.5500 305.0000 1.0000
47.5600 333.0000 1.0000
47.5700 294.0000 1.0000
47.5800 313.0000 1.0000
47.5900 307.0000 1.0000
47.6000 293.0000 1.0000
47.6100 296.0000 1.0000
47.6200 325.0000 1.0000
47.6300 310.0000 1.0000
47.6400 299.0000 1.0000
47.6500 296.0000 1.0000
47.6600 298.0000 1.0000
47.6700 312.0000 1.0000
47.6800 318.0000 1.0000
47.6900 272.0000 1.0000
47.7000 300.0000 1.0000
47.7100 302.0000 1.0000
47.7200 279.0000 1.0000
47.7300 281.0000 1.0000
47.7400 289.0000 1.0000
47.7500 309.0000 1.0000
47.7600 289.0000 1.0000
47.7700 300.0000 1.0000
47.7800 294.0000 1.0000
47.7900 321.0000 1.0000
47.8000 327.0000 1.0000
47.8100 297.0000 1.0000
47.8200 299.0000 1.0000
47.8300 291.0000 1.0000
47.8400 290.0000 1.0000
47.8500 300.0000 1.0000
47.8600 281.0000 1.0000
47.8700 274.0000 1.0000
47.8800 279.0000 1.0000
47.8900 308.0000 1.0000
47.9000 305.0000 1.0000
47.9100 305.0000 1.0000
47.9200 276.0000 1.0000
47.9300 280.0000 1.0000
47.9400 293.0000 1.0000
47.9500 314.0000 1.0000
47.9600 292.0000 1.0000
47.9700 298.0000 1.0000
47.9800 337.0000 1.0000
47.9900 302.0000 1.0000
48.0000 317.0000 1.0000
48.0100 301.0000 1.0000
48.0200 319.0000 1.0000
48.0300 332.0000 1.0000
48.0400 320.0000 1.0000
48.0500 289.0000 1.0000
48.0600 309.0000 1.0000
48.0700 288.0000 1.0000
48.0800 281.0000 1.0000
48.0900 283.0000 1.0000
48.1000 318.0000 1.0000
48.1100 281.0000 1.0000
48.1200 269.0000 1.0000
48.1300 312.0000 1.0000
48.1400 306.0000 1.0000
48.1500 283.0000 1.0000
48.1600 276.0000 1.0000
48.1700 313.0000 1.0000
48.1800 295.0000 1.0000
48.1900 282.0000 1.0000
48.2000 309.0000 1.0000
48.2100 295.0000 1.0000
48.2200 289.0000 1.0000
48.2300 313.0000 1.0000
48.2400 290.0000 1.0000
48.2500 309.0000 1.0000
48.2600 275.0000 1.0000
48.2700 302.0000 1.0000
48.2800 300.0000 1.0000
48.2900 309.0000 1.0000
48.3000 295.0000 1.0000
48.3100 294.0000 1.0000
48.3200 287.0000 1.0000
48.3300 314.0000 1.0000
48.3400 302.0000 1.0000
48.3500 288.0000 1.0000
48.3600 296.0000 1.0000
48.3700 275.0000 1.0000
48.3800 292.0000 1.0000
48.3900 283.0000 1.0000
48.4000 305.0000 1.0000
48.4100 285.0000 1.0000
48.4200 288.0000 1.0000
48.4300 293.0000 1.0000
48.4400 277.0000 1.0000
48.4500 303.0000 1.0000
48.4600 306.0000 1.0000
48.4700 289.0000 1.0000
48.4800 283.0000 1.0000
48.4900 300.0000 1.0000
48.5000 319.0000 1.0000
48.5100 300.0000 1.0000
48.5200 296.0000 1.0000
48.5300 289.0000 1.0000
48.5400 322.0000 1.0000
48.5500 285.0000 1.0000
48.5600 282.0000 1.0000
48.5700 297.0000 1.0000
48.5800 271.0000 1.0000
48.5900 271.0000 1.0000
48.6000 291.0000 1.0000
48.6100 312.0000 1.0000
48.6200 278.0000 1.0000
48.6300 290.0000 1.0000
48.6400 319.0000 1.0000
48.6500 293.0000 1.0000
48.6600 307.0000 1.0000
48.6700 289.0000 1.0000
48.6800 285.0000 1.0000
48.6900 301.0000 1.0000
48.7000 320.0000 1.0000
48.7100 300.0000 1.0000
48.7200 281.0000 1.0000
48.7300 294.0000 1.0000
48.7400 298.0000 1.0000
48.7500 285.0000 1.0000
48.7600 298.0000 1.0000
48.7700 299.0000 1.0000
48.7800 291.0000 1.0000
48.7900 311.0000 1.0000
48.8000 317.0000 1.0000
48.8100 321.0000 1.0000
48.8200 283.0000 1.0000
48.8300 272.0000 1.0000
48.8400 296.0000 1.0000
48.8500 289.0000 1.0000
48.8600 295.0000 1.0000
48.8700 317.0000 1.0000
48.8800 299.0000 1.0000
48.8900 275.0000 1.0000
48.9000 288.0000 1.0000
48.9100 278.0000 1.0000
48.9200 309.0000 1.0000
48.9300 298.0000 1.0000
48.9400 289.0000 1.0000
48.9500 275.0000 1.0000
48.9600 326.0000 1.0000
48.9700 298.0000 1.0000
48.9800 312.0000 1.0000
48.9900 301.0000 1.0000
49.0000 281.0000 1.0000
49.0100 301.0000 1.0000
49.0200 310.0000 1.0000
49.0300 319.0000 1.0000
49.0400 276.0000 1.0000
49.0500 299.0000 1.0000
49.0600 290.0000 1.0000
49.0700 283.0000 1.0000
49.0800 283.0000 1.0000
49.0900 313.0000 1.0000
49.1000 286.0000 1.0000
49.1100 294.0000 1.0000
49.1200 290.0000 1.0000
49.1300 319.0000 1.0000
49.1400 316.0000 1.0000
49.1500 288.0000 1.0000
49.1600 274.0000 1.0000
49.1700 289.0000 1.0000
49.1800 288.0000 1.0000
49.1900 317.0000 1.0000
49.2000 272.0000 1.0000
49.2100 320.0000 1.0000
49.2200 297.0000 1.0000
49.2300 290.0000 1.0000
49.2400 296.0000 1.0000
49.2500 314.0000 1.0000
49.2600 312.0000 1.0000
49.2700 288.0000 1.0000
49.2800 306.0000 1.0000
49.2900 290.0000 1.0000
49.3000 304.0000 1.0000
49.3100 313.0000 1.0000
49.3200 330.0000 1.0000
49.3300 302.0000 1.0000
49.3400 333.0000 1.0000
49.3500 327.0000 1.0000
49.3600 324.0000 1.0000
49.3700 320.0000 1.0000
49.3800 322.0000 1.0000
49.3900 329.0000 1.0000
49.4000 340.0000 1.0000
49.4100 319.0000 1.0000
49.4200 305.0000 1.0000
49.4300 342.0000 1.0000
49.4400 317.0000 1.0000
49.4500 300.0000 1.0000
49.4600 336.0000 1.0000
49.4700 329.0000 1.0000
49.4800 280.0000 1.0000
49.4900 334.0000 1.0000
49.5000 297.0000 1.0000
49.5100 302.0000 1.0000
49.5200 331.0000 1.0000
49.5300 340.0000 1.0000
49.5400 305.0000 1.0000
49.5500 307.0000 1.0000
49.5600 328.0000 1.0000
49.5700 323.0000 1.0000
49.5800 311.0000 1.0000
49.5900 313.0000 1.0000
49.6000 295.0000 1.0000
49.6100 321.0000 1.0000
49.6200 328.0000 1.0000
49.6300 281.0000 1.0000
49.6400 307.0000 1.0000
49.6500 306.0000 1.0000
49.6600 315.0000 1.0000
49.6700 290.0000 1.0000
49.6800 309.0000 1.0000
49.6900 296.0000 1.0000
49.7000 318.0000 1.0000
49.7100 319.0000 1.0000
49.7200 314.0000 1.0000
49.7300 297.0000 1.0000
49.7400 325.0000 1.0000
49.7500 336.0000 1.0000
49.7600 291.0000 1.0000
49.7700 295.0000 1.0000
49.7800 276.0000 1.0000
49.7900 289.0000 1.0000
49.8000 314.0000 1.0000
49.8100 303.0000 1.0000
49.8200 306.0000 1.0000
49.8300 293.0000 1.0000
49.8400 282.0000 1.0000
49.8500 293.0000 1.0000
49.8600 316.0000 1.0000
49.8700 304.0000 1.0000
49.8800 273.0000 1.0000
49.8900 279.0000 1.0000
49.9000 313.0000 1.0000
49.9100 282.0000 1.0000
49.9200 311.0000 1.0000
49.9300 302.0000 1.0000
49.9400 296.0000 1.0000
49.9500 317.0000 1.0000
49.9600 280.0000 1.0000
49.9700 325.0000 1.0000
49.9800 291.0000 1.0000
49.9900 310.0000 1.0000
50.0000 293.0000 1.0000
50.0100 272.0000 1.0000
50.0200 285.0000 1.0000
50.0300 290.0000 1.0000
50.0400 308.0000 1.0000
50.0500 293.0000 1.0000
50.0600 298.0000 1.0000
50.0700 293.0000 1.0000
50.0800 291.0000 1.0000
50.0900 307.0000 1.0000
50.1000 299.0000 1.0000
50.1100 288.0000 1.0000
50.1200 291.0000 1.0000
50.1300 298.0000 1.0000
50.1400 288.0000 1.0000
50.1500 319.0000 1.0000
50.1600 295.0000 1.0000
50.1700 279.0000 1.0000
50.1800 272.0000 1.0000
50.1900 277.0000 1.0000
50.2000 300.0000 1.0000
50.2100 306.0000 1.0000
50.2200 294.0000 1.0000
50.2300 314.0000 1.0000
50.2400 307.0000 1.0000
50.2500 307.0000 1.0000
50.2600 307.0000 1.0000
50.2700 301.0000 1.0000
50.2800 309.0000 1.0000
50.2900 292.0000 1.0000
50.3000 298.0000 1.0000
50.3100 280.0000 1.0000
50.3200 332.0000 1.0000
50.3300 308.0000 1.0000
50.3400 290.0000 1.0000
50.3500 257.0000 1.0000
50.3600 277.0000 1.0000
50.3700 302.0000 1.0000
50.3800 305.0000 1.0000
50.3900 312.0000 1.0000
50.4000 287.0000 1.0000
50.4100 324.0000 1.0000
50.4200 296.0000 1.0000
50.4300 302.0000 1.0000
50.4400 290.0000 1.0000
50.4500 294.0000 1.0000
50.4600 307.0000 1.0000
50.4700 322.0000 1.0000
50.4800 310.0000 1.0000
50.4900 281.0000 1.0000
50.5000 313.0000 1.0000
50.5100 302.0000 1.0000
50.5200 304.0000 1.0000
50.5300 270.0000 1.0000
50.5400 290.0000 1.0000
50.5500 285.0000 1.0000
50.5600 283.0000 1.0000
50.5700 292.0000 1.0000
50.5800 322.0000 1.0000
50.5900 307.0000 1.0000
50.6000 302.0000 1.0000
50.6100 313.0000 1.0000
50.6200 291.0000 1.0000
50.6300 306.0000 1.0000
50.6400 288.0000 1.0000
50.6500 316.0000 1.0000
50.6600 299.0000 1.0000
50.6700 307.0000 1.0000
50.6800 301.0000 1.0000
50.6900 307.0000 1.0000
50.7000 319.0000 1.0000
50.7100 288.0000 1.0000
50.7200 319.0000 1.0000
50.7300 282.0000 1.0000
50.7400 273.0000 1.0000
50.7500 300.0000 1.0000
50.7600 323.0000 1.0000
50.7700 317.0000 1.0000
50.7800 310.0000 1.0000
50.7900 283.0000 1.0000
50.8000 307.0000 1.0000
50.8100 321.0000 1.0000
50.8200 326.0000 1.0000
50.8300 342.0000 1.0000
50.8400 324.0000 1.0000
50.8500 287.0000 1.0000
50.8600 315.0000 1.0000
50.8700 343.0000 1.0000
50.8800 321.0000 1.0000
50.8900 324.0000 1.0000
50.9000 313.0000 1.0000
50.9100 321.0000 1.0000
50.9200 313.0000 1.0000
50.9300 325.0000 1.0000
50.9400 319.0000 1.0000
50.9500 315.0000 1.0000
50.9600 347.0000 1.0000
50.9700 336.0000 1.0000
50.9800 303.0000 1.0000
50.9900 306.0000 1.0000
51.0000 321.0000 1.0000
51.0100 328.0000 1.0000
51.0200 322.0000 1.0000
51.0300 328.0000 1.0000
51.0400 328.0000 1.0000
51.0500 347.0000 1.0000
51.0600 345.0000 1.0000
51.0700 341.0000 1.0000
51.0800 369.0000 1.0000
51.0900 371.0000 1.0000
51.1000 358.0000 1.0000
51.1100 349.0000 1.0000
51.1200 357.0000 1.0000
51.1300 347.0000 1.0000
51.1400 354.0000 1.0000
51.1500 378.0000 1.0000
51.1600 375.0000 1.0000
51.1700 417.0000 1.0000
51.1800 407.0000 1.0000
51.1900 398.0000 1.0000
51.2000 433.0000 1.0000
51.2100 443.0000 1.0000
51.2200 494.0000 1.0000
51.2300 498.0000 1.0000
51.2400 466.0000 1.0000
51.2500 537.0000 1.0000
51.2600 508.0000 1.0000
51.2700 548.0000 1.0000
51.2800 561.0000 1.0000
51.2900 592.0000 1.0000
51.3000 645.0000 1.0000
51.3100 691.0000 1.0000
51.3200 731.0000 1.0000
51.3300 787.0000 1.0000
51.3400 770.0000 1.0000
51.3500 879.0000 1.0000
51.3600 934.0000 1.0000
51.3700 996.0000 1.0000
51.3800 1000.0000 1.0000
51.3900 1143.0000 1.0000
51.4000 1308.0000 1.0000
51.4100 1332.0000 1.0000
51.4200 1414.0000 1.0000
51.4300 1567.0000 1.0000
51.4400 1610.0000 1.0000
51.4500 1741.0000 1.0000
51.4600 1801.0000 1.0000
51.4700 1888.0000 1.0000
51.4800 1976.0000 1.0000
51.4900 2054.0000 1.0000
51.5000 2014.0000 1.0000
51.5100 2048.0000 1.0000
51.5200 1972.0000 1.0000
51.5300 1907.0000 1.0000
51.5400 1892.0000 1.0000
51.5500 1897.0000 1.0000
51.5600 1787.0000 1.0000
51.5700 1644.0000 1.0000
51.5800 1673.0000 1.0000
51.5900 1626.0000 1.0000
51.6000 1534.0000 1.0000
51.6100 1532.0000 1.0000
51.6200 1462.0000 1.0000
51.6300 1420.0000 1.0000
51.6400 1371.0000 1.0000
51.6500 1286.0000 1.0000
51.6600 1272.0000 1.0000
51.6700 1203.0000 1.0000
51.6800 1038.0000 1.0000
51.6900 981.0000 1.0000
51.7000 946.0000 1.0000
51.7100 876.0000 1.0000
51.7200 851.0000 1.0000
51.7300 766.0000 1.0000
51.7400 743.0000 1.0000
51.7500 669.0000 1.0000
51.7600 610.0000 1.0000
51.7700 597.0000 1.0000
51.7800 601.0000 1.0000
51.7900 578.0000 1.0000
51.8000 566.0000 1.0000
51.8100 537.0000 1.0000
51.8200 475.0000 1.0000
51.8300 489.0000 1.0000
51.8400 465.0000 1.0000
51.8500 441.0000 1.0000
51.8600 440.0000 1.0000
51.8700 429.0000 1.0000
51.8800 419.0000 1.0000
51.8900 432.0000 1.0000
51.9000 408.0000 1.0000
51.9100 417.0000 1.0000
51.9200 371.0000 1.0000
51.9300 366.0000 1.0000
51.9400 369.0000 1.0000
51.9500 356.0000 1.0000
51.9600 386.0000 1.0000
51.9700 382.0000 1.0000
51.9800 364.0000 1.0000
51.9900 345.0000 1.0000
52.0000 340.0000 1.0000
52.0100 358.0000 1.0000
52.0200 353.0000 1.0000
52.0300 321.0000 1.0000
52.0400 327.0000 1.0000
52.0500 337.0000 1.0000
52.0600 329.0000 1.0000
52.0700 298.0000 1.0000
52.0800 347.0000 1.0000
52.0900 332.0000 1.0000
52.1000 333.0000 1.0000
52.1100 334.0000 1.0000
52.1200 333.0000 1.0000
52.1300 338.0000 1.0000
52.1400 347.0000 1.0000
52.1500 326.0000 1.0000
52.1600 297.0000 1.0000
52.1700 322.0000 1.0000
52.1800 323.0000 1.0000
52.1900 349.0000 1.0000
52.2000 303.0000 1.0000
52.2100 313.0000 1.0000
52.2200 306.0000 1.0000
52.2300 327.0000 1.0000
52.2400 309.0000 1.0000
52.2500 299.0000 1.0000
52.2600 330.0000 1.0000
52.2700 315.0000 1.0000
52.2800 312.0000 1.0000
52.2900 312.0000 1.0000
52.3000 327.0000 1.0000
52.3100 319.0000 1.0000
52.3200 332.0000 1.0000
52.3300 328.0000 1.0000
52.3400 284.0000 1.0000
52.3500 314.0000 1.0000
52.3600 290.0000 1.0000
52.3700 311.0000 1.0000
52.3800 324.0000 1.0000
52.3900 304.0000 1.0000
52.4000 303.0000 1.0000
52.4100 286.0000 1.0000
52.4200 288.0000 1.0000
52.4300 298.0000 1.0000
52.4400 321.0000 1.0000
52.4500 293.0000 1.0000
52.4600 305.0000 1.0000
52.4700 304.0000 1.0000
52.4800 313.0000 1.0000
52.4900 295.0000 1.0000
52.5000 295.0000 1.0000
52.5100 315.0000 1.0000
52.5200 330.0000 1.0000
52.5300 312.0000 1.0000
52.5400 286.0000 1.0000
52.5500 297.0000 1.0000
52.5600 304.0000 1.0000
52.5700 279.0000 1.0000
52.5800 301.0000 1.0000
52.5900 318.0000 1.0000
52.6000 293.0000 1.0000
52.6100 297.0000 1.0000
52.6200 331.0000 1.0000
52.6300 316.0000 1.0000
52.6400 295.0000 1.0000
52.6500 292.0000 1.0000
52.6600 289.0000 1.0000
52.6700 288.0000 1.0000
52.6800 314.0000 1.0000
52.6900 297.0000 1.0000
52.7000 294.0000 1.0000
52.7100 309.0000 1.0000
52.7200 291.0000 1.0000
52.7300 284.0000 1.0000
52.7400 283.0000 1.0000
52.7500 287.0000 1.0000
52.7600 281.0000 1.0000
52.7700 320.0000 1.0000
52.7800 302.0000 1.0000
52.7900 296.0000 1.0000
52.8000 290.0000 1.0000
52.8100 306.0000 1.0000
52.8200 293.0000 1.0000
52.8300 274.0000 1.0000
52.8400 316.0000 1.0000
52.8500 275.0000 1.0000
52.8600 296.0000 1.0000
52.8700 297.0000 1.0000
52.8800 277.0000 1.0000
52.8900 281.0000 1.0000
52.9000 300.0000 1.0000
52.9100 286.0000 1.0000
52.9200 323.0000 1.0000
52.9300 293.0000 1.0000
52.9400 298.0000 1.0000
52.9500 296.0000 1.0000
52.9600 291.0000 1.0000
52.9700 302.0000 1.0000
52.9800 281.0000 1.0000
52.9900 301.0000 1.0000
53.0000 315.0000 1.0000
53.0100 310.0000 1.0000
53.0200 299.0000 1.0000
53.0300 302.0000 1.0000
53.0400 303.0000 1.0000
53.0500 298.0000 1.0000
53.0600 292.0000 1.0000
53.0700 266.0000 1.0000
53.0800 288.0000 1.0000
53.0900 305.0000 1.0000
53.1000 300.0000 1.0000
53.1100 283.0000 1.0000
53.1200 271.0000 1.0000
53.1300 295.0000 1.0000
53.1400 296.0000 1.0000
53.1500 281.0000 1.0000
53.1600 298.0000 1.0000
53.1700 273.0000 1.0000
53.1800 271.0000 1.0000
53.1900 283.0000 1.0000
53.2000 279.0000 1.0000
53.2100 297.0000 1.0000
53.2200 307.0000 1.0000
53.2300 276.0000 1.0000
53.2400 246.0000 1.0000
53.2500 270.0000 1.0000
53.2600 278.0000 1.0000
53.2700 288.0000 1.0000
53.2800 279.0000 1.0000
53.2900 303.0000 1.0000
53.3000 314.0000 1.0000
53.3100 298.0000 1.0000
53.3200 278.0000 1.0000
53.3300 272.0000 1.0000
53.3400 298.0000 1.0000
53.3500 290.0000 1.0000
53.3600 264.0000 1.0000
53.3700 271.0000 1.0000
53.3800 270.0000 1.0000
53.3900 259.0000 1.0000
53.4000 276.0000 1.0000
53.4100 263.0000 1.0000
53.4200 271.0000 1.0000
53.4300 289.0000 1.0000
53.4400 271.0000 1.0000
53.4500 303.0000 1.0000
53.4600 282.0000 1.0000
53.4700 293.0000 1.0000
53.4800 270.0000 1.0000
53.4900 293.0000 1.0000
53.5000 277.0000 1.0000
53.5100 285.0000 1.0000
53.5200 289.0000 1.0000
53.5300 271.0000 1.0000
53.5400 278.0000 1.0000
53.5500 308.0000 1.0000
53.5600 303.0000 1.0000
53.5700 278.0000 1.0000
53.5800 284.0000 1.0000
53.5900 290.0000 1.0000
53.6000 289.0000 1.0000
53.6100 267.0000 1.0000
53.6200 277.0000 1.0000
53.6300 286.0000 1.0000
53.6400 275.0000 1.0000
53.6500 290.0000 1.0000
53.6600 281.0000 1.0000
53.6700 302.0000 1.0000
53.6800 311.0000 1.0000
53.6900 277.0000 1.0000
53.7000 273.0000 1.0000
53.7100 288.0000 1.0000
53.7200 273.0000 1.0000
53.7300 297.0000 1.0000
53.7400 295.0000 1.0000
53.7500 303.0000 1.0000
53.7600 307.0000 1.0000
53.7700 298.0000 1.0000
53.7800 280.0000 1.0000
53.7900 287.0000 1.0000
53.8000 288.0000 1.0000
53.8100 321.0000 1.0000
53.8200 296.0000 1.0000
53.8300 291.0000 1.0000
53.8400 264.0000 1.0000
53.8500 302.0000 1.0000
53.8600 282.0000 1.0000
53.8700 280.0000 1.0000
53.8800 271.0000 1.0000
53.8900 301.0000 1.0000
53.9000 311.0000 1.0000
53.9100 307.0000 1.0000
53.9200 327.0000 1.0000
53.9300 298.0000 1.0000
53.9400 284.0000 1.0000
53.9500 295.0000 1.0000
53.9600 321.0000 1.0000
53.9700 324.0000 1.0000
53.9800 311.0000 1.0000
53.9900 303.0000 1.0000
54.0000 326.0000 1.0000
54.0100 328.0000 1.0000
54.0200 323.0000 1.0000
54.0300 293.0000 1.0000
54.0400 309.0000 1.0000
54.0500 309.0000 1.0000
54.0600 326.0000 1.0000
54.0700 314.0000 1.0000
54.0800 285.0000 1.0000
54.0900 331.0000 1.0000
54.1000 300.0000 1.0000
54.1100 324.0000 1.0000
54.1200 295.0000 1.0000
54.1300 316.0000 1.0000
54.1400 326.0000 1.0000
54.1500 293.0000 1.0000
54.1600 308.0000 1.0000
54.1700 302.0000 1.0000
54.1800 299.0000 1.0000
54.1900 324.0000 1.0000
54.2000 320.0000 1.0000
54.2100 322.0000 1.0000
54.2200 340.0000 1.0000
54.2300 313.0000 1.0000
54.2400 324.0000 1.0000
54.2500 345.0000 1.0000
54.2600 296.0000 1.0000
54.2700 328.0000 1.0000
54.2800 349.0000 1.0000
54.2900 308.0000 1.0000
54.3000 323.0000 1.0000
54.3100 319.0000 1.0000
54.3200 329.0000 1.0000
54.3300 304.0000 1.0000
54.3400 327.0000 1.0000
54.3500 334.0000 1.0000
54.3600 349.0000 1.0000
54.3700 350.0000 1.0000
54.3800 348.0000 1.0000
54.3900 366.0000 1.0000
54.4000 384.0000 1.0000
54.4100 360.0000 1.0000
54.4200 374.0000 1.0000
54.4300 367.0000 1.0000
54.4400 386.0000 1.0000
54.4500 414.0000 1.0000
54.4600 433.0000 1.0000
54.4700 421.0000 1.0000
54.4800 425.0000 1.0000
54.4900 435.0000 1.0000
54.5000 411.0000 1.0000
54.5100 396.0000 1.0000
54.5200 422.0000 1.0000
54.5300 432.0000 1.0000
54.5400 423.0000 1.0000
54.5500 412.0000 1.0000
54.5600 388.0000 1.0000
54.5700 380.0000 1.0000
54.5800 402.0000 1.0000
54.5900 408.0000 1.0000
54.6000 393.0000 1.0000
54.6100 414.0000 1.0000
54.6200 432.0000 1.0000
54.6300 396.0000 1.0000
54.6400 414.0000 1.0000
54.6500 416.0000 1.0000
54.6600 386.0000 1.0000
54.6700 393.0000 1.0000
54.6800 400.0000 1.0000
54.6900 412.0000 1.0000
54.7000 410.0000 1.0000
54.7100 371.0000 1.0000
54.7200 352.0000 1.0000
54.7300 343.0000 1.0000
54.7400 345.0000 1.0000
54.7500 349.0000 1.0000
54.7600 328.0000 1.0000
54.7700 337.0000 1.0000
54.7800 334.0000 1.0000
54.7900 322.0000 1.0000
54.8000 350.0000 1.0000
54.8100 308.0000 1.0000
54.8200 304.0000 1.0000
54.8300 319.0000 1.0000
54.8400 329.0000 1.0000
54.8500 309.0000 1.0000
54.8600 295.0000 1.0000
54.8700 291.0000 1.0000
54.8800 327.0000 1.0000
54.8900 299.0000 1.0000
54.9000 306.0000 1.0000
54.9100 327.0000 1.0000
54.9200 303.0000 1.0000
54.9300 287.0000 1.0000
54.9400 304.0000 1.0000
54.9500 308.0000 1.0000
54.9600 286.0000 1.0000
54.9700 301.0000 1.0000
54.9800 329.0000 1.0000
54.9900 314.0000 1.0000
55.0000 274.0000 1.0000
55.0100 290.0000 1.0000
55.0200 285.0000 1.0000
55.0300 273.0000 1.0000
55.0400 279.0000 1.0000
55.0500 307.0000 1.0000
55.0600 317.0000 1.0000
55.0700 287.0000 1.0000
55.0800 288.0000 1.0000
55.0900 271.0000 1.0000
55.1000 269.0000 1.0000
55.1100 284.0000 1.0000
55.1200 276.0000 1.0000
55.1300 289.0000 1.0000
55.1400 292.0000 1.0000
55.1500 308.0000 1.0000
55.1600 289.0000 1.0000
55.1700 269.0000 1.0000
55.1800 287.0000 1.0000
55.1900 305.0000 1.0000
55.2000 271.0000 1.0000
55.2100 273.0000 1.0000
55.2200 287.0000 1.0000
55.2300 295.0000 1.0000
55.2400 295.0000 1.0000
55.2500 308.0000 1.0000
55.2600 279.0000 1.0000
55.2700 273.0000 1.0000
55.2800 271.0000 1.0000
55.2900 299.0000 1.0000
55.3000 265.0000 1.0000
55.3100 306.0000 1.0000
55.3200 303.0000 1.0000
55.3300 298.0000 1.0000
55.3400 280.0000 1.0000
55.3500 305.0000 1.0000
55.3600 296.0000 1.0000
55.3700 262.0000 1.0000
55.3800 274.0000 1.0000
55.3900 297.0000 1.0000
55.4000 280.0000 1.0000
55.4100 276.0000 1.0000
55.4200 292.0000 1.0000
55.4300 300.0000 1.0000
55.4400 273.0000 1.0000
55.4500 267.0000 1.0000
55.4600 302.0000 1.0000
55.4700 266.0000 1.0000
55.4800 248.0000 1.0000
55.4900 262.0000 1.0000
55.5000 273.0000 1.0000
55.5100 279.0000 1.0000
55.5200 275.0000 1.0000
55.5300 283.0000 1.0000
55.5400 267.0000 1.0000
55.5500 276.0000 1.0000
55.5600 288.0000 1.0000
55.5700 286.0000 1.0000
55.5800 284.0000 1.0000
55.5900 278.0000 1.0000
55.6000 249.0000 1.0000
55.6100 292.0000 1.0000
55.6200 284.0000 1.0000
55.6300 278.0000 1.0000
55.6400 302.0000 1.0000
55.6500 280.0000 1.0000
55.6600 274.0000 1.0000
55.6700 281.0000 1.0000
55.6800 278.0000 1.0000
55.6900 267.0000 1.0000
55.7000 270.0000 1.0000
55.7100 268.0000 1.0000
55.7200 274.0000 1.0000
55.7300 265.0000 1.0000
55.7400 271.0000 1.0000
55.7500 255.0000 1.0000
55.7600 260.0000 1.0000
55.7700 270.0000 1.0000
55.7800 274.0000 1.0000
55.7900 254.0000 1.0000
55.8000 248.0000 1.0000
55.8100 276.0000 1.0000
55.8200 296.0000 1.0000
55.8300 282.0000 1.0000
55.8400 284.0000 1.0000
55.8500 266.0000 1.0000
55.8600 274.0000 1.0000
55.8700 283.0000 1.0000
55.8800 292.0000 1.0000
55.8900 273.0000 1.0000
55.9000 261.0000 1.0000
55.9100 271.0000 1.0000
55.9200 267.0000 1.0000
55.9300 256.0000 1.0000
55.9400 299.0000 1.0000
55.9500 238.0000 1.0000
55.9600 270.0000 1.0000
55.9700 257.0000 1.0000
55.9800 253.0000 1.0000
55.9900 258.0000 1.0000
56.0000 261.0000 1.0000
56.0100 270.0000 1.0000
56.0200 294.0000 1.0000
56.0300 273.0000 1.0000
56.0400 263.0000 1.0000
56.0500 270.0000 1.0000
56.0600 286.0000 1.0000
56.0700 266.0000 1.0000
56.0800 276.0000 1.0000
56.0900 273.0000 1.0000
56.1000 275.0000 1.0000
56.1100 286.0000 1.0000
56.1200 277.0000 1.0000
56.1300 254.0000 1.0000
56.1400 265.0000 1.0000
56.1500 309.0000 1.0000
56.1600 262.0000 1.0000
56.1700 273.0000 1.0000
56.1800 274.0000 1.0000
56.1900 263.0000 1.0000
56.2000 283.0000 1.0000
56.2100 287.0000 1.0000
56.2200 283.0000 1.0000
56.2300 279.0000 1.0000
56.2400 275.0000 1.0000
56.2500 264.0000 1.0000
56.2600 256.0000 1.0000
56.2700 280.0000 1.0000
56.2800 265.0000 1.0000
56.2900 273.0000 1.0000
56.3000 284.0000 1.0000
56.3100 275.0000 1.0000
56.3200 311.0000 1.0000
56.3300 277.0000 1.0000
56.3400 259.0000 1.0000
56.3500 293.0000 1.0000
56.3600 276.0000 1.0000
56.3700 296.0000 1.0000
56.3800 263.0000 1.0000
56.3900 234.0000 1.0000
56.4000 254.0000 1.0000
56.4100 243.0000 1.0000
56.4200 265.0000 1.0000
56.4300 255.0000 1.0000
56.4400 266.0000 1.0000
56.4500 295.0000 1.0000
56.4600 293.0000 1.0000
56.4700 300.0000 1.0000
56.4800 253.0000 1.0000
56.4900 264.0000 1.0000
56.5000 265.0000 1.0000
56.5100 261.0000 1.0000
56.5200 266.0000 1.0000
56.5300 267.0000 1.0000
56.5400 248.0000 1.0000
56.5500 242.0000 1.0000
56.5600 265.0000 1.0000
56.5700 272.0000 1.0000
56.5800 304.0000 1.0000
56.5900 280.0000 1.0000
56.6000 275.0000 1.0000
56.6100 265.0000 1.0000
56.6200 284.0000 1.0000
56.6300 273.0000 1.0000
56.6400 283.0000 1.0000
56.6500 283.0000 1.0000
56.6600 254.0000 1.0000
56.6700 245.0000 1.0000
56.6800 278.0000 1.0000
56.6900 279.0000 1.0000
56.7000 265.0000 1.0000
56.7100 276.0000 1.0000
56.7200 279.0000 1.0000
56.7300 273.0000 1.0000
56.7400 281.0000 1.0000
56.7500 272.0000 1.0000
56.7600 264.0000 1.0000
56.7700 266.0000 1.0000
56.7800 257.0000 1.0000
56.7900 244.0000 1.0000
56.8000 266.0000 1.0000
56.8100 259.0000 1.0000
56.8200 291.0000 1.0000
56.8300 273.0000 1.0000
56.8400 295.0000 1.0000
56.8500 269.0000 1.0000
56.8600 258.0000 1.0000
56.8700 269.0000 1.0000
56.8800 264.0000 1.0000
56.8900 281.0000 1.0000
56.9000 285.0000 1.0000
56.9100 270.0000 1.0000
56.9200 273.0000 1.0000
56.9300 276.0000 1.0000
56.9400 273.0000 1.0000
56.9500 267.0000 1.0000
56.9600 274.0000 1.0000
56.9700 249.0000 1.0000
56.9800 274.0000 1.0000
56.9900 274.0000 1.0000
57.0000 290.0000 1.0000
57.0100 315.0000 1.0000
57.0200 271.0000 1.0000
57.0300 279.0000 1.0000
57.0400 275.0000 1.0000
57.0500 281.0000 1.0000
57.0600 253.0000 1.0000
57.0700 279.0000 1.0000
57.0800 275.0000 1.0000
57.0900 278.0000 1.0000
57.1000 250.0000 1.0000
57.1100 279.0000 1.0000
57.1200 269.0000 1.0000
57.1300 261.0000 1.0000
57.1400 259.0000 1.0000
57.1500 259.0000 1.0000
57.1600 277.0000 1.0000
57.1700 271.0000 1.0000
57.1800 247.0000 1.0000
57.1900 288.0000 1.0000
57.2000 284.0000 1.0000
57.2100 272.0000 1.0000
57.2200 259.0000 1.0000
57.2300 280.0000 1.0000
57.2400 272.0000 1.0000
57.2500 275.0000 1.0000
57.2600 284.0000 1.0000
57.2700 274.0000 1.0000
57.2800 279.0000 1.0000
57.2900 254.0000 1.0000
57.3000 284.0000 1.0000
57.3100 285.0000 1.0000
57.3200 288.0000 1.0000
57.3300 252.0000 1.0000
57.3400 263.0000 1.0000
57.3500 255.0000 1.0000
57.3600 253.0000 1.0000
57.3700 276.0000 1.0000
57.3800 271.0000 1.0000
57.3900 275.0000 1.0000
57.4000 276.0000 1.0000
57.4100 273.0000 1.0000
57.4200 267.0000 1.0000
57.4300 286.0000 1.0000
57.4400 242.0000 1.0000
57.4500 277.0000 1.0000
57.4600 291.0000 1.0000
57.4700 245.0000 1.0000
57.4800 257.0000 1.0000
57.4900 274.0000 1.0000
57.5000 254.0000 1.0000
57.5100 312.0000 1.0000
57.5200 311.0000 1.0000
57.5300 303.0000 1.0000
57.5400 268.0000 1.0000
57.5500 290.0000 1.0000
57.5600 245.0000 1.0000
57.5700 261.0000 1.0000
57.5800 294.0000 1.0000
57.5900 286.0000 1.0000
57.6000 280.0000 1.0000
57.6100 285.0000 1.0000
57.6200 283.0000 1.0000
57.6300 292.0000 1.0000
57.6400 276.0000 1.0000
57.6500 256.0000 1.0000
57.6600 262.0000 1.0000
57.6700 277.0000 1.0000
57.6800 262.0000 1.0000
57.6900 281.0000 1.0000
57.7000 269.0000 1.0000
57.7100 255.0000 1.0000
57.7200 272.0000 1.0000
57.7300 288.0000 1.0000
57.7400 278.0000 1.0000
57.7500 301.0000 1.0000
57.7600 287.0000 1.0000
57.7700 275.0000 1.0000
57.7800 276.0000 1.0000
57.7900 287.0000 1.0000
57.8000 279.0000 1.0000
57.8100 270.0000 1.0000
57.8200 268.0000 1.0000
57.8300 256.0000 1.0000
57.8400 262.0000 1.0000
57.8500 260.0000 1.0000
57.8600 273.0000 1.0000
57.8700 257.0000 1.0000
57.8800 252.0000 1.0000
57.8900 259.0000 1.0000
57.9000 281.0000 1.0000
57.9100 266.0000 1.0000
57.9200 282.0000 1.0000
57.9300 300.0000 1.0000
57.9400 262.0000 1.0000
57.9500 272.0000 1.0000
57.9600 282.0000 1.0000
57.9700 264.0000 1.0000
57.9800 281.0000 1.0000
57.9900 273.0000 1.0000
58.0000 266.0000 1.0000
58.0100 264.0000 1.0000
58.0200 297.0000 1.0000
58.0300 265.0000 1.0000
58.0400 281.0000 1.0000
58.0500 250.0000 1.0000
58.0600 282.0000 1.0000
58.0700 280.0000 1.0000
58.0800 263.0000 1.0000
58.0900 289.0000 1.0000
58.1000 256.0000 1.0000
58.1100 270.0000 1.0000
58.1200 289.0000 1.0000
58.1300 260.0000 1.0000
58.1400 271.0000 1.0000
58.1500 273.0000 1.0000
58.1600 264.0000 1.0000
58.1700 257.0000 1.0000
58.1800 269.0000 1.0000
58.1900 263.0000 1.0000
58.2000 263.0000 1.0000
58.2100 262.0000 1.0000
58.2200 270.0000 1.0000
58.2300 257.0000 1.0000
58.2400 263.0000 1.0000
58.2500 248.0000 1.0000
58.2600 295.0000 1.0000
58.2700 300.0000 1.0000
58.2800 285.0000 1.0000
58.2900 284.0000 1.0000
58.3000 258.0000 1.0000
58.3100 287.0000 1.0000
58.3200 246.0000 1.0000
58.3300 253.0000 1.0000
58.3400 253.0000 1.0000
58.3500 268.0000 1.0000
58.3600 294.0000 1.0000
58.3700 267.0000 1.0000
58.3800 262.0000 1.0000
58.3900 308.0000 1.0000
58.4000 284.0000 1.0000
58.4100 248.0000 1.0000
58.4200 265.0000 1.0000
58.4300 285.0000 1.0000
58.4400 260.0000 1.0000
58.4500 284.0000 1.0000
58.4600 278.0000 1.0000
58.4700 263.0000 1.0000
58.4800 274.0000 1.0000
58.4900 285.0000 1.0000
58.5000 269.0000 1.0000
58.5100 271.0000 1.0000
58.5200 247.0000 1.0000
58.5300 285.0000 1.0000
58.5400 257.0000 1.0000
58.5500 267.0000 1.0000
58.5600 293.0000 1.0000
58.5700 269.0000 1.0000
58.5800 284.0000 1.0000
58.5900 275.0000 1.0000
58.6000 271.0000 1.0000
58.6100 296.0000 1.0000
58.6200 282.0000 1.0000
58.6300 287.0000 1.0000
58.6400 308.0000 1.0000
58.6500 307.0000 1.0000
58.6600 291.0000 1.0000
58.6700 301.0000 1.0000
58.6800 268.0000 1.0000
58.6900 294.0000 1.0000
58.7000 249.0000 1.0000
58.7100 244.0000 1.0000
58.7200 272.0000 1.0000
58.7300 264.0000 1.0000
58.7400 271.0000 1.0000
58.7500 271.0000 1.0000
58.7600 287.0000 1.0000
58.7700 287.0000 1.0000
58.7800 291.0000 1.0000
58.7900 270.0000 1.0000
58.8000 270.0000 1.0000
58.8100 290.0000 1.0000
58.8200 264.0000 1.0000
58.8300 278.0000 1.0000
58.8400 267.0000 1.0000
58.8500 273.0000 1.0000
58.8600 255.0000 1.0000
58.8700 236.0000 1.0000
58.8800 279.0000 1.0000
58.8900 269.0000 1.0000
58.9000 250.0000 1.0000
58.9100 256.0000 1.0000
58.9200 269.0000 1.0000
58.9300 251.0000 1.0000
58.9400 290.0000 1.0000
58.9500 270.0000 1.0000
58.9600 246.0000 1.0000
58.9700 281.0000 1.0000
58.9800 318.0000 1.0000
58.9900 263.0000 1.0000
59.0000 245.0000 1.0000
59.0100 246.0000 1.0000
59.0200 276.0000 1.0000
59.0300 262.0000 1.0000
59.0400 274.0000 1.0000
59.0500 277.0000 1.0000
59.0600 276.0000 1.0000
59.0700 270.0000 1.0000
59.0800 248.0000 1.0000
59.0900 239.0000 1.0000
59.1000 277.0000 1.0000
59.1100 258.0000 1.0000
59.1200 256.0000 1.0000
59.1300 259.0000 1.0000
59.1400 284.0000 1.0000
59.1500 267.0000 1.0000
59.1600 285.0000 1.0000
59.1700 253.0000 1.0000
59.1800 256.0000 1.0000
59.1900 284.0000 1.0000
59.2000 273.0000 1.0000
59.2100 286.0000 1.0000
59.2200 284.0000 1.0000
59.2300 282.0000 1.0000
59.2400 261.0000 1.0000
59.2500 265.0000 1.0000
59.2600 278.0000 1.0000
59.2700 279.0000 1.0000
59.2800 253.0000 1.0000
59.2900 263.0000 1.0000
59.3000 268.0000 1.0000
59.3100 280.0000 1.0000
59.3200 274.0000 1.0000
59.3300 276.0000 1.0000
59.3400 273.0000 1.0000
59.3500 274.0000 1.0000
59.3600 285.0000 1.0000
59.3700 251.0000 1.0000
59.3800 276.0000 1.0000
59.3900 269.0000 1.0000
59.4000 269.0000 1.0000
59.4100 280.0000 1.0000
59.4200 295.0000 1.0000
59.4300 276.0000 1.0000
59.4400 279.0000 1.0000
59.4500 246.0000 1.0000
59.4600 270.0000 1.0000
59.4700 276.0000 1.0000
59.4800 277.0000 1.0000
59.4900 260.0000 1.0000
59.5000 279.0000 1.0000
59.5100 265.0000 1.0000
59.5200 265.0000 1.0000
59.5300 287.0000 1.0000
59.5400 237.0000 1.0000
59.5500 271.0000 1.0000
59.5600 270.0000 1.0000
59.5700 240.0000 1.0000
59.5800 252.0000 1.0000
59.5900 235.0000 1.0000
59.6000 270.0000 1.0000
59.6100 266.0000 1.0000
59.6200 256.0000 1.0000
59.6300 267.0000 1.0000
59.6400 282.0000 1.0000
59.6500 299.0000 1.0000
59.6600 277.0000 1.0000
59.6700 271.0000 1.0000
59.6800 268.0000 1.0000
59.6900 254.0000 1.0000
59.7000 268.0000 1.0000
59.7100 273.0000 1.0000
59.7200 283.0000 1.0000
59.7300 283.0000 1.0000
59.7400 281.0000 1.0000
59.7500 288.0000 1.0000
59.7600 266.0000 1.0000
59.7700 282.0000 1.0000
59.7800 256.0000 1.0000
59.7900 278.0000 1.0000
59.8000 284.0000 1.0000
59.8100 274.0000 1.0000
59.8200 267.0000 1.0000
59.8300 283.0000 1.0000
59.8400 277.0000 1.0000
59.8500 286.0000 1.0000
59.8600 268.0000 1.0000
59.8700 287.0000 1.0000
59.8800 266.0000 1.0000
59.8900 262.0000 1.0000
59.9000 262.0000 1.0000
59.9100 250.0000 1.0000
59.9200 283.0000 1.0000
59.9300 258.0000 1.0000
59.9400 227.0000 1.0000
59.9500 251.0000 1.0000
59.9600 282.0000 1.0000
59.9700 266.0000 1.0000
59.9800 259.0000 1.0000
59.9900 268.0000 1.0000
60.0000 282.0000 1.0000
60.0100 264.0000 1.0000
60.0200 275.0000 1.0000
60.0300 232.0000 1.0000
60.0400 261.0000 1.0000
60.0500 273.0000 1.0000
60.0600 250.0000 1.0000
60.0700 249.0000 1.0000
60.0800 272.0000 1.0000
60.0900 276.0000 1.0000
60.1000 258.0000 1.0000
60.1100 286.0000 1.0000
60.1200 287.0000 1.0000
60.1300 280.0000 1.0000
60.1400 244.0000 1.0000
60.1500 254.0000 1.0000
60.1600 228.0000 1.0000
60.1700 252.0000 1.0000
60.1800 288.0000 1.0000
60.1900 289.0000 1.0000
60.2000 263.0000 1.0000
60.2100 274.0000 1.0000
60.2200 233.0000 1.0000
60.2300 255.0000 1.0000
60.2400 266.0000 1.0000
60.2500 279.0000 1.0000
60.2600 284.0000 1.0000
60.2700 266.0000 1.0000
60.2800 269.0000 1.0000
60.2900 263.0000 1.0000
60.3000 261.0000 1.0000
60.3100 276.0000 1.0000
60.3200 259.0000 1.0000
60.3300 255.0000 1.0000
60.3400 263.0000 1.0000
60.3500 275.0000 1.0000
60.3600 247.0000 1.0000
60.3700 261.0000 1.0000
60.3800 261.0000 1.0000
60.3900 253.0000 1.0000
60.4000 253.0000 1.0000
60.4100 245.0000 1.0000
60.4200 245.0000 1.0000
60.4300 280.0000 1.0000
60.4400 263.0000 1.0000
60.4500 266.0000 1.0000
60.4600 286.0000 1.0000
60.4700 262.0000 1.0000
60.4800 269.0000 1.0000
60.4900 278.0000 1.0000
60.5000 285.0000 1.0000
60.5100 295.0000 1.0000
60.5200 276.0000 1.0000
60.5300 254.0000 1.0000
60.5400 283.0000 1.0000
60.5500 280.0000 1.0000
60.5600 273.0000 1.0000
60.5700 275.0000 1.0000
60.5800 252.0000 1.0000
60.5900 262.0000 1.0000
60.6000 298.0000 1.0000
60.6100 274.0000 1.0000
60.6200 276.0000 1.0000
60.6300 254.0000 1.0000
60.6400 265.0000 1.0000
60.6500 285.0000 1.0000
60.6600 300.0000 1.0000
60.6700 274.0000 1.0000
60.6800 277.0000 1.0000
60.6900 270.0000 1.0000
60.7000 284.0000 1.0000
60.7100 281.0000 1.0000
60.7200 262.0000 1.0000
60.7300 274.0000 1.0000
60.7400 270.0000 1.0000
60.7500 241.0000 1.0000
60.7600 248.0000 1.0000
60.7700 273.0000 1.0000
60.7800 267.0000 1.0000
60.7900 261.0000 1.0000
60.8000 256.0000 1.0000
60.8100 292.0000 1.0000
60.8200 265.0000 1.0000
60.8300 268.0000 1.0000
60.8400 255.0000 1.0000
60.8500 273.0000 1.0000
60.8600 267.0000 1.0000
60.8700 290.0000 1.0000
60.8800 285.0000 1.0000
60.8900 274.0000 1.0000
60.9000 278.0000 1.0000
60.9100 265.0000 1.0000
60.9200 282.0000 1.0000
60.9300 274.0000 1.0000
60.9400 260.0000 1.0000
60.9500 252.0000 1.0000
60.9600 298.0000 1.0000
60.9700 261.0000 1.0000
60.9800 290.0000 1.0000
60.9900 282.0000 1.0000
61.0000 274.0000 1.0000
61.0100 261.0000 1.0000
61.0200 258.0000 1.0000
61.0300 274.0000 1.0000
61.0400 265.0000 1.0000
61.0500 277.0000 1.0000
61.0600 283.0000 1.0000
61.0700 283.0000 1.0000
61.0800 300.0000 1.0000
61.0900 281.0000 1.0000
61.1000 295.0000 1.0000
61.1100 286.0000 1.0000
61.1200 282.0000 1.0000
61.1300 304.0000 1.0000
61.1400 289.0000 1.0000
61.1500 308.0000 1.0000
61.1600 325.0000 1.0000
61.1700 317.0000 1.0000
61.1800 305.0000 1.0000
61.1900 315.0000 1.0000
61.2000 307.0000 1.0000
61.2100 330.0000 1.0000
61.2200 318.0000 1.0000
61.2300 309.0000 1.0000
61.2400 327.0000 1.0000
61.2500 321.0000 1.0000
61.2600 316.0000 1.0000
61.2700 355.0000 1.0000
61.2800 323.0000 1.0000
61.2900 350.0000 1.0000
61.3000 373.0000 1.0000
61.3100 346.0000 1.0000
61.3200 375.0000 1.0000
61.3300 372.0000 1.0000
61.3400 374.0000 1.0000
61.3500 392.0000 1.0000
61.3600 391.0000 1.0000
61.3700 362.0000 1.0000
61.3800 433.0000 1.0000
61.3900 452.0000 1.0000
61.4000 455.0000 1.0000
61.4100 462.0000 1.0000
61.4200 451.0000 1.0000
61.4300 482.0000 1.0000
61.4400 517.0000 1.0000
61.4500 498.0000 1.0000
61.4600 501.0000 1.0000
61.4700 533.0000 1.0000
61.4800 552.0000 1.0000
61.4900 515.0000 1.0000
61.5000 543.0000 1.0000
61.5100 540.0000 1.0000
61.5200 580.0000 1.0000
61.5300 600.0000 1.0000
61.5400 561.0000 1.0000
61.5500 593.0000 1.0000
61.5600 599.0000 1.0000
61.5700 577.0000 1.0000
61.5800 574.0000 1.0000
61.5900 548.0000 1.0000
61.6000 583.0000 1.0000
61.6100 588.0000 1.0000
61.6200 570.0000 1.0000
61.6300 534.0000 1.0000
61.6400 545.0000 1.0000
61.6500 545.0000 1.0000
61.6600 562.0000 1.0000
61.6700 528.0000 1.0000
61.6800 514.0000 1.0000
61.6900 481.0000 1.0000
61.7000 514.0000 1.0000
61.7100 498.0000 1.0000
61.7200 502.0000 1.0000
61.7300 467.0000 1.0000
61.7400 477.0000 1.0000
61.7500 448.0000 1.0000
61.7600 438.0000 1.0000
61.7700 448.0000 1.0000
61.7800 460.0000 1.0000
61.7900 437.0000 1.0000
61.8000 407.0000 1.0000
61.8100 440.0000 1.0000
61.8200 409.0000 1.0000
61.8300 399.0000 1.0000
61.8400 390.0000 1.0000
61.8500 378.0000 1.0000
61.8600 347.0000 1.0000
61.8700 400.0000 1.0000
61.8800 345.0000 1.0000
61.8900 392.0000 1.0000
61.9000 359.0000 1.0000
61.9100 335.0000 1.0000
61.9200 348.0000 1.0000
61.9300 335.0000 1.0000
61.9400 348.0000 1.0000
61.9500 322.0000 1.0000
61.9600 327.0000 1.0000
61.9700 353.0000 1.0000
61.9800 330.0000 1.0000
61.9900 287.0000 1.0000
62.0000 284.0000 1.0000
62.0100 310.0000 1.0000
62.0200 298.0000 1.0000
62.0300 332.0000 1.0000
62.0400 300.0000 1.0000
62.0500 317.0000 1.0000
62.0600 289.0000 1.0000
62.0700 298.0000 1.0000
62.0800 292.0000 1.0000
62.0900 280.0000 1.0000
62.1000 297.0000 1.0000
62.1100 301.0000 1.0000
62.1200 295.0000 1.0000
62.1300 300.0000 1.0000
62.1400 264.0000 1.0000
62.1500 286.0000 1.0000
62.1600 288.0000 1.0000
62.1700 292.0000 1.0000
62.1800 282.0000 1.0000
62.1900 273.0000 1.0000
62.2000 291.0000 1.0000
62.2100 275.0000 1.0000
62.2200 282.0000 1.0000
62.2300 293.0000 1.0000
62.2400 290.0000 1.0000
62.2500 300.0000 1.0000
62.2600 307.0000 1.0000
62.2700 293.0000 1.0000
62.2800 321.0000 1.0000
62.2900 304.0000 1.0000
62.3000 300.0000 1.0000
62.3100 316.0000 1.0000
62.3200 313.0000 1.0000
62.3300 300.0000 1.0000
62.3400 298.0000 1.0000
62.3500 269.0000 1.0000
62.3600 291.0000 1.0000
62.3700 281.0000 1.0000
62.3800 309.0000 1.0000
62.3900 322.0000 1.0000
62.4000 313.0000 1.0000
62.4100 319.0000 1.0000
62.4200 266.0000 1.0000
62.4300 282.0000 1.0000
62.4400 306.0000 1.0000
62.4500 297.0000 1.0000
62.4600 292.0000 1.0000
62.4700 315.0000 1.0000
62.4800 296.0000 1.0000
62.4900 288.0000 1.0000
62.5000 291.0000 1.0000
62.5100 271.0000 1.0000
62.5200 290.0000 1.0000
62.5300 310.0000 1.0000
62.5400 285.0000 1.0000
62.5500 274.0000 1.0000
62.5600 278.0000 1.0000
62.5700 296.0000 1.0000
62.5800 303.0000 1.0000
62.5900 307.0000 1.0000
62.6000 267.0000 1.0000
62.6100 255.0000 1.0000
62.6200 270.0000 1.0000
62.6300 297.0000 1.0000
62.6400 268.0000 1.0000
62.6500 268.0000 1.0000
62.6600 283.0000 1.0000
62.6700 267.0000 1.0000
62.6800 256.0000 1.0000
62.6900 268.0000 1.0000
62.7000 258.0000 1.0000
62.7100 269.0000 1.0000
62.7200 262.0000 1.0000
62.7300 299.0000 1.0000
62.7400 247.0000 1.0000
62.7500 284.0000 1.0000
62.7600 282.0000 1.0000
62.7700 290.0000 1.0000
62.7800 277.0000 1.0000
62.7900 272.0000 1.0000
62.8000 274.0000 1.0000
62.8100 281.0000 1.0000
62.8200 273.0000 1.0000
62.8300 261.0000 1.0000
62.8400 263.0000 1.0000
62.8500 264.0000 1.0000
62.8600 270.0000 1.0000
62.8700 277.0000 1.0000
62.8800 278.0000 1.0000
62.8900 269.0000 1.0000
62.9000 313.0000 1.0000
62.9100 280.0000 1.0000
62.9200 267.0000 1.0000
62.9300 252.0000 1.0000
62.9400 260.0000 1.0000
62.9500 272.0000 1.0000
62.9600 285.0000 1.0000
62.9700 272.0000 1.0000
62.9800 288.0000 1.0000
62.9900 273.0000 1.0000
63.0000 268.0000 1.0000
63.0100 267.0000 1.0000
63.0200 270.0000 1.0000
63.0300 286.0000 1.0000
63.0400 268.0000 1.0000
63.0500 287.0000 1.0000
63.0600 268.0000 1.0000
63.0700 280.0000 1.0000
63.0800 260.0000 1.0000
63.0900 273.0000 1.0000
63.1000 251.0000 1.0000
63.1100 276.0000 1.0000
63.1200 265.0000 1.0000
63.1300 267.0000 1.0000
63.1400 268.0000 1.0000
63.1500 278.0000 1.0000
63.1600 281.0000 1.0000
63.1700 285.0000 1.0000
63.1800 287.0000 1.0000
63.1900 278.0000 1.0000
63.2000 262.0000 1.0000
63.2100 267.0000 1.0000
63.2200 258.0000 1.0000
63.2300 254.0000 1.0000
63.2400 267.0000 1.0000
63.2500 256.0000 1.0000
63.2600 261.0000 1.0000
63.2700 281.0000 1.0000
63.2800 262.0000 1.0000
63.2900 261.0000 1.0000
63.3000 279.0000 1.0000
63.3100 261.0000 1.0000
63.3200 285.0000 1.0000
63.3300 268.0000 1.0000
63.3400 255.0000 1.0000
63.3500 257.0000 1.0000
63.3600 263.0000 1.0000
63.3700 297.0000 1.0000
63.3800 295.0000 1.0000
63.3900 262.0000 1.0000
63.4000 266.0000 1.0000
63.4100 288.0000 1.0000
63.4200 266.0000 1.0000
63.4300 294.0000 1.0000
63.4400 267.0000 1.0000
63.4500 274.0000 1.0000
63.4600 281.0000 1.0000
63.4700 287.0000 1.0000
63.4800 260.0000 1.0000
63.4900 288.0000 1.0000
63.5000 261.0000 1.0000
63.5100 267.0000 1.0000
63.5200 284.0000 1.0000
63.5300 258.0000 1.0000
63.5400 273.0000 1.0000
63.5500 279.0000 1.0000
63.5600 288.0000 1.0000
63.5700 271.0000 1.0000
63.5800 272.0000 1.0000
63.5900 257.0000 1.0000
63.6000 280.0000 1.0000
63.6100 273.0000 1.0000
63.6200 268.0000 1.0000
63.6300 285.0000 1.0000
63.6400 273.0000 1.0000
63.6500 312.0000 1.0000
63.6600 282.0000 1.0000
63.6700 287.0000 1.0000
63.6800 315.0000 1.0000
63.6900 290.0000 1.0000
63.7000 317.0000 1.0000
63.7100 300.0000 1.0000
63.7200 309.0000 1.0000
63.7300 304.0000 1.0000
63.7400 329.0000 1.0000
63.7500 311.0000 1.0000
63.7600 309.0000 1.0000
63.7700 291.0000 1.0000
63.7800 325.0000 1.0000
63.7900 314.0000 1.0000
63.8000 330.0000 1.0000
63.8100 323.0000 1.0000
63.8200 335.0000 1.0000
63.8300 370.0000 1.0000
63.8400 353.0000 1.0000
63.8500 346.0000 1.0000
63.8600 369.0000 1.0000
63.8700 358.0000 1.0000
63.8800 365.0000 1.0000
63.8900 363.0000 1.0000
63.9000 364.0000 1.0000
63.9100 431.0000 1.0000
63.9200 399.0000 1.0000
63.9300 384.0000 1.0000
63.9400 395.0000 1.0000
63.9500 408.0000 1.0000
63.9600 406.0000 1.0000
63.9700 427.0000 1.0000
63.9800 403.0000 1.0000
63.9900 405.0000 1.0000
64.0000 399.0000 1.0000
64.0100 362.0000 1.0000
64.0200 395.0000 1.0000
64.0300 380.0000 1.0000
64.0400 371.0000 1.0000
64.0500 368.0000 1.0000
64.0600 366.0000 1.0000
64.0700 373.0000 1.0000
64.0800 353.0000 1.0000
64.0900 370.0000 1.0000
64.1000 375.0000 1.0000
64.1100 359.0000 1.0000
64.1200 351.0000 1.0000
64.1300 368.0000 1.0000
64.1400 372.0000 1.0000
64.1500 384.0000 1.0000
64.1600 342.0000 1.0000
64.1700 374.0000 1.0000
64.1800 337.0000 1.0000
64.1900 347.0000 1.0000
64.2000 334.0000 1.0000
64.2100 332.0000 1.0000
64.2200 345.0000 1.0000
64.2300 327.0000 1.0000
64.2400 325.0000 1.0000
64.2500 290.0000 1.0000
64.2600 295.0000 1.0000
64.2700 297.0000 1.0000
64.2800 320.0000 1.0000
64.2900 305.0000 1.0000
64.3000 256.0000 1.0000
64.3100 304.0000 1.0000
64.3200 278.0000 1.0000
64.3300 286.0000 1.0000
64.3400 269.0000 1.0000
64.3500 302.0000 1.0000
64.3600 300.0000 1.0000
64.3700 275.0000 1.0000
64.3800 301.0000 1.0000
64.3900 290.0000 1.0000
64.4000 289.0000 1.0000
64.4100 276.0000 1.0000
64.4200 284.0000 1.0000
64.4300 274.0000 1.0000
64.4400 316.0000 1.0000
64.4500 262.0000 1.0000
64.4600 283.0000 1.0000
64.4700 269.0000 1.0000
64.4800 286.0000 1.0000
64.4900 292.0000 1.0000
64.5000 289.0000 1.0000
64.5100 269.0000 1.0000
64.5200 277.0000 1.0000
64.5300 281.0000 1.0000
64.5400 269.0000 1.0000
64.5500 287.0000 1.0000
64.5600 271.0000 1.0000
64.5700 277.0000 1.0000
64.5800 270.0000 1.0000
64.5900 291.0000 1.0000
64.6000 294.0000 1.0000
64.6100 284.0000 1.0000
64.6200 277.0000 1.0000
64.6300 298.0000 1.0000
64.6400 289.0000 1.0000
64.6500 278.0000 1.0000
64.6600 261.0000 1.0000
64.6700 279.0000 1.0000
64.6800 299.0000 1.0000
64.6900 268.0000 1.0000
64.7000 267.0000 1.0000
64.7100 283.0000 1.0000
64.7200 286.0000 1.0000
64.7300 272.0000 1.0000
64.7400 271.0000 1.0000
64.7500 298.0000 1.0000
64.7600 274.0000 1.0000
64.7700 273.0000 1.0000
64.7800 274.0000 1.0000
64.7900 270.0000 1.0000
64.8000 281.0000 1.0000
64.8100 274.0000 1.0000
64.8200 324.0000 1.0000
64.8300 297.0000 1.0000
64.8400 287.0000 1.0000
64.8500 270.0000 1.0000
64.8600 270.0000 1.0000
64.8700 294.0000 1.0000
64.8800 284.0000 1.0000
64.8900 284.0000 1.0000
64.9000 280.0000 1.0000
64.9100 286.0000 1.0000
64.9200 294.0000 1.0000
64.9300 267.0000 1.0000
64.9400 289.0000 1.0000
64.9500 266.0000 1.0000
64.9600 271.0000 1.0000
64.9700 272.0000 1.0000
64.9800 272.0000 1.0000
64.9900 289.0000 1.0000
65.0000 315.0000 1.0000
65.0100 299.0000 1.0000
65.0200 309.0000 1.0000
65.0300 318.0000 1.0000
65.0400 288.0000 1.0000
65.0500 282.0000 1.0000
65.0600 284.0000 1.0000
65.0700 299.0000 1.0000
65.0800 307.0000 1.0000
65.0900 323.0000 1.0000
65.1000 293.0000 1.0000
65.1100 332.0000 1.0000
65.1200 312.0000 1.0000
65.1300 304.0000 1.0000
65.1400 300.0000 1.0000
65.1500 320.0000 1.0000
65.1600 321.0000 1.0000
65.1700 321.0000 1.0000
65.1800 302.0000 1.0000
65.1900 312.0000 1.0000
65.2000 339.0000 1.0000
65.2100 355.0000 1.0000
65.2200 349.0000 1.0000
65.2300 360.0000 1.0000
65.2400 341.0000 1.0000
65.2500 372.0000 1.0000
65.2600 387.0000 1.0000
65.2700 374.0000 1.0000
65.2800 400.0000 1.0000
65.2900 408.0000 1.0000
65.3000 423.0000 1.0000
65.3100 425.0000 1.0000
65.3200 455.0000 1.0000
65.3300 436.0000 1.0000
65.3400 488.0000 1.0000
65.3500 519.0000 1.0000
65.3600 524.0000 1.0000
65.3700 593.0000 1.0000
65.3800 545.0000 1.0000
65.3900 586.0000 1.0000
65.4000 614.0000 1.0000
65.4100 625.0000 1.0000
65.4200 642.0000 1.0000
65.4300 666.0000 1.0000
65.4400 744.0000 1.0000
65.4500 776.0000 1.0000
65.4600 863.0000 1.0000
65.4700 822.0000 1.0000
65.4800 806.0000 1.0000
65.4900 877.0000 1.0000
65.5000 871.0000 1.0000
65.5100 912.0000 1.0000
65.5200 945.0000 1.0000
65.5300 914.0000 1.0000
65.5400 1007.0000 1.0000
65.5500 1011.0000 1.0000
65.5600 1026.0000 1.0000
65.5700 1007.0000 1.0000
65.5800 1018.0000 1.0000
65.5900 965.0000 1.0000
65.6000 951.0000 1.0000
65.6100 951.0000 1.0000
65.6200 952.0000 1.0000
65.6300 868.0000 1.0000
65.6400 874.0000 1.0000
65.6500 890.0000 1.0000
65.6600 885.0000 1.0000
65.6700 879.0000 1.0000
65.6800 861.0000 1.0000
65.6900 857.0000 1.0000
65.7000 845.0000 1.0000
65.7100 781.0000 1.0000
65.7200 813.0000 1.0000
65.7300 769.0000 1.0000
65.7400 743.0000 1.0000
65.7500 732.0000 1.0000
65.7600 720.0000 1.0000
65.7700 654.0000 1.0000
65.7800 639.0000 1.0000
65.7900 636.0000 1.0000
65.8000 608.0000 1.0000
65.8100 610.0000 1.0000
65.8200 593.0000 1.0000
65.8300 517.0000 1.0000
65.8400 490.0000 1.0000
65.8500 475.0000 1.0000
65.8600 489.0000 1.0000
65.8700 413.0000 1.0000
65.8800 454.0000 1.0000
65.8900 468.0000 1.0000
65.9000 397.0000 1.0000
65.9100 404.0000 1.0000
65.9200 411.0000 1.0000
65.9300 361.0000 1.0000
65.9400 356.0000 1.0000
65.9500 378.0000 1.0000
65.9600 367.0000 1.0000
65.9700 344.0000 1.0000
65.9800 364.0000 1.0000
65.9900 338.0000 1.0000
66.0000 360.0000 1.0000
66.0100 361.0000 1.0000
66.0200 329.0000 1.0000
66.0300 335.0000 1.0000
66.0400 338.0000 1.0000
66.0500 305.0000 1.0000
66.0600 317.0000 1.0000
66.0700 339.0000 1.0000
66.0800 308.0000 1.0000
66.0900 305.0000 1.0000
66.1000 329.0000 1.0000
66.1100 281.0000 1.0000
66.1200 266.0000 1.0000
66.1300 300.0000 1.0000
66.1400 317.0000 1.0000
66.1500 287.0000 1.0000
66.1600 293.0000 1.0000
66.1700 297.0000 1.0000
66.1800 279.0000 1.0000
66.1900 293.0000 1.0000
66.2000 274.0000 1.0000
66.2100 269.0000 1.0000
66.2200 247.0000 1.0000
66.2300 298.0000 1.0000
66.2400 300.0000 1.0000
66.2500 291.0000 1.0000
66.2600 294.0000 1.0000
66.2700 266.0000 1.0000
66.2800 278.0000 1.0000
66.2900 281.0000 1.0000
66.3000 306.0000 1.0000
66.3100 268.0000 1.0000
66.3200 266.0000 1.0000
66.3300 276.0000 1.0000
66.3400 260.0000 1.0000
66.3500 257.0000 1.0000
66.3600 271.0000 1.0000
66.3700 279.0000 1.0000
66.3800 272.0000 1.0000
66.3900 297.0000 1.0000
66.4000 273.0000 1.0000
66.4100 274.0000 1.0000
66.4200 256.0000 1.0000
66.4300 255.0000 1.0000
66.4400 249.0000 1.0000
66.4500 260.0000 1.0000
66.4600 250.0000 1.0000
66.4700 263.0000 1.0000
66.4800 248.0000 1.0000
66.4900 271.0000 1.0000
66.5000 246.0000 1.0000
66.5100 276.0000 1.0000
66.5200 275.0000 1.0000
66.5300 257.0000 1.0000
66.5400 265.0000 1.0000
66.5500 256.0000 1.0000
66.5600 241.0000 1.0000
66.5700 274.0000 1.0000
66.5800 264.0000 1.0000
66.5900 249.0000 1.0000
66.6000 251.0000 1.0000
66.6100 229.0000 1.0000
66.6200 263.0000 1.0000
66.6300 264.0000 1.0000
66.6400 237.0000 1.0000
66.6500 265.0000 1.0000
66.6600 250.0000 1.0000
66.6700 229.0000 1.0000
66.6800 249.0000 1.0000
66.6900 273.0000 1.0000
66.7000 252.0000 1.0000
66.7100 257.0000 1.0000
66.7200 244.0000 1.0000
66.7300 257.0000 1.0000
66.7400 260.0000 1.0000
66.7500 245.0000 1.0000
66.7600 269.0000 1.0000
66.7700 278.0000 1.0000
66.7800 262.0000 1.0000
66.7900 245.0000 1.0000
66.8000 230.0000 1.0000
66.8100 272.0000 1.0000
66.8200 263.0000 1.0000
66.8300 236.0000 1.0000
66.8400 246.0000 1.0000
66.8500 244.0000 1.0000
66.8600 246.0000 1.0000
66.8700 256.0000 1.0000
66.8800 247.0000 1.0000
66.8900 252.0000 1.0000
66.9000 231.0000 1.0000
66.9100 270.0000 1.0000
66.9200 255.0000 1.0000
66.9300 256.0000 1.0000
66.9400 230.0000 1.0000
66.9500 277.0000 1.0000
66.9600 239.0000 1.0000
66.9700 222.0000 1.0000
66.9800 244.0000 1.0000
66.9900 239.0000 1.0000
67.0000 231.0000 1.0000
67.0100 248.0000 1.0000
67.0200 252.0000 1.0000
67.0300 248.0000 1.0000
67.0400 260.0000 1.0000
67.0500 264.0000 1.0000
67.0600 250.0000 1.0000
67.0700 260.0000 1.0000
67.0800 221.0000 1.0000
67.0900 239.0000 1.0000
67.1000 274.0000 1.0000
67.1100 280.0000 1.0000
67.1200 252.0000 1.0000
67.1300 256.0000 1.0000
67.1400 260.0000 1.0000
67.1500 246.0000 1.0000
67.1600 233.0000 1.0000
67.1700 247.0000 1.0000
67.1800 231.0000 1.0000
67.1900 258.0000 1.0000
67.2000 252.0000 1.0000
67.2100 224.0000 1.0000
67.2200 251.0000 1.0000
67.2300 299.0000 1.0000
67.2400 249.0000 1.0000
67.2500 226.0000 1.0000
67.2600 236.0000 1.0000
67.2700 235.0000 1.0000
67.2800 262.0000 1.0000
67.2900 257.0000 1.0000
67.3000 238.0000 1.0000
67.3100 231.0000 1.0000
67.3200 262.0000 1.0000
67.3300 257.0000 1.0000
67.3400 257.0000 1.0000
67.3500 239.0000 1.0000
67.3600 243.0000 1.0000
67.3700 267.0000 1.0000
67.3800 249.0000 1.0000
67.3900 237.0000 1.0000
67.4000 248.0000 1.0000
67.4100 242.0000 1.0000
67.4200 217.0000 1.0000
67.4300 262.0000 1.0000
67.4400 270.0000 1.0000
67.4500 250.0000 1.0000
67.4600 228.0000 1.0000
67.4700 245.0000 1.0000
67.4800 226.0000 1.0000
67.4900 207.0000 1.0000
67.5000 225.0000 1.0000
67.5100 253.0000 1.0000
67.5200 228.0000 1.0000
67.5300 258.0000 1.0000
67.5400 247.0000 1.0000
67.5500 225.0000 1.0000
67.5600 211.0000 1.0000
67.5700 219.0000 1.0000
67.5800 248.0000 1.0000
67.5900 248.0000 1.0000
67.6000 271.0000 1.0000
67.6100 239.0000 1.0000
67.6200 239.0000 1.0000
67.6300 232.0000 1.0000
67.6400 218.0000 1.0000
67.6500 238.0000 1.0000
67.6600 256.0000 1.0000
67.6700 238.0000 1.0000
67.6800 245.0000 1.0000
67.6900 254.0000 1.0000
67.7000 249.0000 1.0000
67.7100 234.0000 1.0000
67.7200 247.0000 1.0000
67.7300 220.0000 1.0000
67.7400 237.0000 1.0000
67.7500 270.0000 1.0000
67.7600 257.0000 1.0000
67.7700 237.0000 1.0000
67.7800 247.0000 1.0000
67.7900 241.0000 1.0000
67.8000 238.0000 1.0000
67.8100 259.0000 1.0000
67.8200 247.0000 1.0000
67.8300 252.0000 1.0000
67.8400 244.0000 1.0000
67.8500 256.0000 1.0000
67.8600 228.0000 1.0000
67.8700 230.0000 1.0000
67.8800 248.0000 1.0000
67.8900 216.0000 1.0000
67.9000 243.0000 1.0000
67.9100 258.0000 1.0000
67.9200 249.0000 1.0000
67.9300 260.0000 1.0000
67.9400 228.0000 1.0000
67.9500 205.0000 1.0000
67.9600 240.0000 1.0000
67.9700 256.0000 1.0000
67.9800 248.0000 1.0000
67.9900 268.0000 1.0000
68.0000 246.0000 1.0000
68.0100 242.0000 1.0000
68.0200 234.0000 1.0000
68.0300 240.0000 1.0000
68.0400 230.0000 1.0000
68.0500 242.0000 1.0000
68.0600 232.0000 1.0000
68.0700 237.0000 1.0000
68.0800 253.0000 1.0000
68.0900 227.0000 1.0000
68.1000 242.0000 1.0000
68.1100 243.0000 1.0000
68.1200 286.0000 1.0000
68.1300 242.0000 1.0000
68.1400 235.0000 1.0000
68.1500 253.0000 1.0000
68.1600 246.0000 1.0000
68.1700 246.0000 1.0000
68.1800 247.0000 1.0000
68.1900 222.0000 1.0000
68.2000 225.0000 1.0000
68.2100 235.0000 1.0000
68.2200 264.0000 1.0000
68.2300 243.0000 1.0000
68.2400 280.0000 1.0000
68.2500 229.0000 1.0000
68.2600 221.0000 1.0000
68.2700 211.0000 1.0000
68.2800 229.0000 1.0000
68.2900 222.0000 1.0000
68.3000 231.0000 1.0000
68.3100 247.0000 1.0000
68.3200 247.0000 1.0000
68.3300 247.0000 1.0000
68.3400 222.0000 1.0000
68.3500 233.0000 1.0000
68.3600 231.0000 1.0000
68.3700 229.0000 1.0000
68.3800 224.0000 1.0000
68.3900 212.0000 1.0000
68.4000 204.0000 1.0000
68.4100 229.0000 1.0000
68.4200 239.0000 1.0000
68.4300 227.0000 1.0000
68.4400 261.0000 1.0000
68.4500 255.0000 1.0000
68.4600 204.0000 1.0000
68.4700 204.0000 1.0000
68.4800 235.0000 1.0000
68.4900 234.0000 1.0000
68.5000 229.0000 1.0000
68.5100 242.0000 1.0000
68.5200 249.0000 1.0000
68.5300 240.0000 1.0000
68.5400 233.0000 1.0000
68.5500 251.0000 1.0000
68.5600 231.0000 1.0000
68.5700 252.0000 1.0000
68.5800 256.0000 1.0000
68.5900 262.0000 1.0000
68.6000 222.0000 1.0000
68.6100 257.0000 1.0000
68.6200 232.0000 1.0000
68.6300 231.0000 1.0000
68.6400 248.0000 1.0000
68.6500 233.0000 1.0000
68.6600 245.0000 1.0000
68.6700 232.0000 1.0000
68.6800 238.0000 1.0000
68.6900 240.0000 1.0000
68.7000 218.0000 1.0000
68.7100 236.0000 1.0000
68.7200 248.0000 1.0000
68.7300 244.0000 1.0000
68.7400 233.0000 1.0000
68.7500 224.0000 1.0000
68.7600 240.0000 1.0000
68.7700 242.0000 1.0000
68.7800 251.0000 1.0000
68.7900 239.0000 1.0000
68.8000 246.0000 1.0000
68.8100 238.0000 1.0000
68.8200 243.0000 1.0000
68.8300 231.0000 1.0000
68.8400 276.0000 1.0000
68.8500 236.0000 1.0000
68.8600 203.0000 1.0000
68.8700 231.0000 1.0000
68.8800 237.0000 1.0000
68.8900 257.0000 1.0000
68.9000 244.0000 1.0000
68.9100 253.0000 1.0000
68.9200 237.0000 1.0000
68.9300 266.0000 1.0000
68.9400 230.0000 1.0000
68.9500 254.0000 1.0000
68.9600 265.0000 1.0000
68.9700 229.0000 1.0000
68.9800 250.0000 1.0000
68.9900 241.0000 1.0000
69.0000 236.0000 1.0000
69.0100 232.0000 1.0000
69.0200 241.0000 1.0000
69.0300 255.0000 1.0000
69.0400 249.0000 1.0000
69.0500 252.0000 1.0000
69.0600 242.0000 1.0000
69.0700 235.0000 1.0000
69.0800 227.0000 1.0000
69.0900 233.0000 1.0000
69.1000 241.0000 1.0000
69.1100 217.0000 1.0000
69.1200 234.0000 1.0000
69.1300 241.0000 1.0000
69.1400 259.0000 1.0000
69.1500 232.0000 1.0000
69.1600 237.0000 1.0000
69.1700 226.0000 1.0000
69.1800 201.0000 1.0000
69.1900 233.0000 1.0000
69.2000 245.0000 1.0000
69.2100 237.0000 1.0000
69.2200 204.0000 1.0000
69.2300 225.0000 1.0000
69.2400 251.0000 1.0000
69.2500 245.0000 1.0000
69.2600 225.0000 1.0000
69.2700 225.0000 1.0000
69.2800 259.0000 1.0000
69.2900 244.0000 1.0000
69.3000 243.0000 1.0000
69.3100 234.0000 1.0000
69.3200 262.0000 1.0000
69.3300 241.0000 1.0000
69.3400 230.0000 1.0000
69.3500 221.0000 1.0000
69.3600 229.0000 1.0000
69.3700 226.0000 1.0000
69.3800 258.0000 1.0000
69.3900 255.0000 1.0000
69.4000 245.0000 1.0000
69.4100 220.0000 1.0000
69.4200 235.0000 1.0000
69.4300 241.0000 1.0000
69.4400 206.0000 1.0000
69.4500 237.0000 1.0000
69.4600 218.0000 1.0000
69.4700 220.0000 1.0000
69.4800 230.0000 1.0000
69.4900 219.0000 1.0000
69.5000 225.0000 1.0000
69.5100 230.0000 1.0000
69.5200 242.0000 1.0000
69.5300 232.0000 1.0000
69.5400 216.0000 1.0000
69.5500 210.0000 1.0000
69.5600 244.0000 1.0000
69.5700 253.0000 1.0000
69.5800 225.0000 1.0000
69.5900 228.0000 1.0000
69.6000 242.0000 1.0000
69.6100 211.0000 1.0000
69.6200 211.0000 1.0000
69.6300 257.0000 1.0000
69.6400 245.0000 1.0000
69.6500 226.0000 1.0000
69.6600 247.0000 1.0000
69.6700 250.0000 1.0000
69.6800 217.0000 1.0000
69.6900 249.0000 1.0000
69.7000 229.0000 1.0000
69.7100 220.0000 1.0000
69.7200 254.0000 1.0000
69.7300 222.0000 1.0000
69.7400 253.0000 1.0000
69.7500 245.0000 1.0000
69.7600 259.0000 1.0000
69.7700 211.0000 1.0000
69.7800 222.0000 1.0000
69.7900 219.0000 1.0000
69.8000 236.0000 1.0000
69.8100 229.0000 1.0000
69.8200 249.0000 1.0000
69.8300 228.0000 1.0000
69.8400 247.0000 1.0000
69.8500 230.0000 1.0000
69.8600 228.0000 1.0000
69.8700 215.0000 1.0000
69.8800 227.0000 1.0000
69.8900 231.0000 1.0000
69.9000 251.0000 1.0000
69.9100 243.0000 1.0000
69.9200 244.0000 1.0000
69.9300 231.0000 1.0000
69.9400 206.0000 1.0000
69.9500 228.0000 1.0000
69.9600 231.0000 1.0000
69.9700 255.0000 1.0000
69.9800 243.0000 1.0000
69.9900 223.0000 1.0000
70.0000 204.0000 1.0000
*RAS_INT_END
*RAS_TEMPERATURE_START
*RAS_TEMPERATURE_END
*RAS_DATA_END
