*RAS_DATA_START
*RAS_HEADER_START
*DISP_FMT_X "%.2f"
*DISP_FMT_Y "%.0f"
*DISP_FULLSCALE "13380.0000000000"
*DISP_LINE_COLOR "255.0000000000"
*DISP_LINE_STYLE "0.0000000000"
*DISP_LINE_WIDTH "0.2500000000"
*DISP_NOTE "測定データ-7"
*DISP_OFFSET_Y "0.0000000000"
*DISP_PEAKSEARCH_UNIT_Y "cps"
*DISP_RANGE_BOTTOM "0.0000000000"
*DISP_RANGE_LEFT "20.0000000000"
*DISP_RANGE_LOGCUTOFF "0.0100000000"
*DISP_RANGE_RIGHT "70.0000000000"
*DISP_RANGE_TOP "13380.0000000000"
*DISP_SCALE_MODE_Y "0.0000000000"
*DISP_TAB_NAME "2θ/θ"
*DISP_TITLE_Y "強度"
*DISP_UNIT_Y "cps"
*DISP_WINDOW_NAME "MSG_MACROENGINE"
*FILE_COMMENT " "
*FILE_MD5 ""
*FILE_MEMO " "
*FILE_OPERATOR "Administrator"
*FILE_SAMPLE " "
*FILE_TYPE "RAS_RAW"
*FILE_USERGROUP "システムマネージャ"
*FILE_VERSION "1.0000000000"
*HW_ATTACHMENT_ID "ATT0025"
*HW_ATTACHMENT_NAME "標準|Standard"
*HW_COUNTER_ID-0 "CUT0025"
*HW_COUNTER_ID-1 "CUT0020"
*HW_COUNTER_ID-2 "CUT0020"
*HW_COUNTER_ID-3 "CSL0021"
*HW_COUNTER_ID-4 "CMC0021"
*HW_COUNTER_NAME-0 "D/teX Ultra|D/teX Ultra"
*HW_COUNTER_NAME-1 "None|None"
*HW_COUNTER_NAME-2 "None|None"
*HW_COUNTER_NAME-3 "BBM|BBM"
*HW_COUNTER_NAME-4 "検出器モノクロメータ|Detector monochromator"
*HW_COUNTER_SELECT_NAME "D/teX Ultra|D/teX Ultra"
*HW_GONIOMETER_ID "GON0023"
*HW_GONIOMETER_NAME "SmartLab|SmartLab"
*HW_GONIOMETER_RADIUS-0 "90.0"
*HW_GONIOMETER_RADIUS-1 "114.0"
*HW_GONIOMETER_RADIUS-2 "190.0"
*HW_GONIOMETER_RADIUS-3 "300.0"
*HW_GONIOMETER_RADIUS-4 "187.0"
*HW_GONIOMETER_RADIUS-5 "300.0"
*HW_GONIOMETER_RADIUS-6 "113.0"
*HW_GONIOMETER_RADIUS-7 "331.0"
*HW_I_OPT_ID-0 "CBO0021"
*HW_I_OPT_ID-1 "ICR0023"
*HW_I_OPT_ID-2 "ISL0021"
*HW_I_OPT_ID-3 "ISO0021"
*HW_I_OPT_ID-4 "IAD0021"
*HW_I_OPT_ID-5 "IPR0001"
*HW_I_OPT_NAME-0 "CBOユニット|CBO unit"
*HW_I_OPT_NAME-1 "標準入射光学ユニット|Standard incident optical unit"
*HW_I_OPT_NAME-2 "標準入射スリットボックス|Standard incident slit box"
*HW_I_OPT_NAME-3 "入射平行スリット|Incident parallel slit"
*HW_I_OPT_NAME-4 "長手制限スリット|Length limiting slit"
*HW_I_OPT_NAME-5 "None|None"
*HW_R_ATTENUATER_AUTOMODE "0"
*HW_R_OPT_ID-0 "RSS0021"
*HW_R_OPT_ID-1 "RCR0023"
*HW_R_OPT_ID-2 "RSO0021"
*HW_R_OPT_ID-3 "RRS0021"
*HW_R_OPT_ID-4 "ATN0021"
*HW_R_OPT_ID-5 "RFL0021"
*HW_R_OPT_ID-6 "RAD0021"
*HW_R_OPT_NAME-0 "標準受光スリットボックス1|Standard receiving slit box # 1"
*HW_R_OPT_NAME-1 "標準受光光学ユニット1|Standard receiving unit # 1"
*HW_R_OPT_NAME-2 "標準受光光学ユニット2|Standard receiving optical unit # 2"
*HW_R_OPT_NAME-3 "標準受光スリットボックス2|Standard receiving slit box # 2"
*HW_R_OPT_NAME-4 "標準アッテネータ|Standard Attenuator"
*HW_R_OPT_NAME-5 "Cu Kβ|Cu K-beta"
*HW_R_OPT_NAME-6 "調整用受光スリット|Alignment receiving slit"
*HW_SAMPLE_HOLDER_ID "SMP0023"
*HW_SAMPLE_HOLDER_NAME "標準Zステージ|Standard Z stage"
*HW_XG_CURRENT_MAX "50"
*HW_XG_CURRENT_MIN "2"
*HW_XG_CURRENT_RESOLUTION "1"
*HW_XG_CURRENT_UNIT "mA"
*HW_XG_FOCUS "1mm x 10mm"
*HW_XG_FOCUS_TYPE "Normal"
*HW_XG_ID ""
*HW_XG_NAME "3kW 封入管(ID:1200)|3kW Sealed tube(ID:1200)"
*HW_XG_TARGET_ATOMIC_NUMBER "29.0000000000"
*HW_XG_TARGET_NAME "Cu"
*HW_XG_TYPE "Hermetic"
*HW_XG_VOLTAGE_MAX "60"
*HW_XG_VOLTAGE_MIN "20"
*HW_XG_VOLTAGE_RESOLUTION "1"
*HW_XG_VOLTAGE_UNIT "kV"
*HW_XG_WATT_MAX "1.500"
*HW_XG_WATT_UNIT "kW"
*HW_XG_WAVE_LENGTH_ALPHA1 "1.540593"
*HW_XG_WAVE_LENGTH_ALPHA2 "1.544414"
*HW_XG_WAVE_LENGTH_BETA "1.392250"
*MEAS_COND_AXIS_NAME-0 "2θ/θ"
*MEAS_COND_AXIS_NAME-1 "2θ"
*MEAS_COND_AXIS_NAME-2 "ω"
*MEAS_COND_AXIS_NAME-3 "Z"
*MEAS_COND_AXIS_NAME-4 "2θ/ω"
*MEAS_COND_AXIS_NAME-5 "θs"
*MEAS_COND_AXIS_NAME-6 "θd"
*MEAS_COND_AXIS_NAME-7 "Ts"
*MEAS_COND_AXIS_NAME-8 "CBO選択スリット"
*MEAS_COND_AXIS_NAME-9 "M"
*MEAS_COND_AXIS_NAME-10 "入射平行スリット"
*MEAS_COND_AXIS_NAME-11 "入射スリット"
*MEAS_COND_AXIS_NAME-12 ""
*MEAS_COND_AXIS_NAME-13 "Zs"
*MEAS_COND_AXIS_NAME-14 "入射光学素子"
*MEAS_COND_AXIS_NAME-15 "長手制限スリット"
*MEAS_COND_AXIS_NAME-16 "センタースリット"
*MEAS_COND_AXIS_NAME-17 "フィルター"
*MEAS_COND_AXIS_NAME-18 "受光スリット1"
*MEAS_COND_AXIS_NAME-19 "受光スリット2"
*MEAS_COND_AXIS_NAME-20 "受光光学素子"
*MEAS_COND_AXIS_NAME-21 "受光平行スリット"
*MEAS_COND_AXIS_NAME-22 "調整用受光スリット"
*MEAS_COND_AXIS_NAME-23 ""
*MEAS_COND_AXIS_NAME-24 ""
*MEAS_COND_AXIS_NAME-25 "Zd"
*MEAS_COND_AXIS_NAME-26 "アッテネータ"
*MEAS_COND_AXIS_NAME-27 "検出器モノクロメータ"
*MEAS_COND_AXIS_NAME-28 "モノクロメータスリット"
*MEAS_COND_AXIS_NAME-29 "プライマリビーム"
*MEAS_COND_AXIS_NAME-30 "PHA"
*MEAS_COND_AXIS_NAME_INTERNAL-0 "TwoThetaTheta"
*MEAS_COND_AXIS_NAME_INTERNAL-1 "TwoTheta"
*MEAS_COND_AXIS_NAME_INTERNAL-2 "Omega"
*MEAS_COND_AXIS_NAME_INTERNAL-3 "Z"
*MEAS_COND_AXIS_NAME_INTERNAL-4 "TwoThetaOmega"
*MEAS_COND_AXIS_NAME_INTERNAL-5 "ThetaS"
*MEAS_COND_AXIS_NAME_INTERNAL-6 "ThetaD"
*MEAS_COND_AXIS_NAME_INTERNAL-7 "Ts"
*MEAS_COND_AXIS_NAME_INTERNAL-8 "CBO"
*MEAS_COND_AXIS_NAME_INTERNAL-9 "CBO-M"
*MEAS_COND_AXIS_NAME_INTERNAL-10 "IncidentSollerSlit"
*MEAS_COND_AXIS_NAME_INTERNAL-11 "IncidentSlitBox"
*MEAS_COND_AXIS_NAME_INTERNAL-12 "IncidentSlitBox-_Axis"
*MEAS_COND_AXIS_NAME_INTERNAL-13 "Zs"
*MEAS_COND_AXIS_NAME_INTERNAL-14 "IncidentMonochromator"
*MEAS_COND_AXIS_NAME_INTERNAL-15 "IncidentAxdSlit"
*MEAS_COND_AXIS_NAME_INTERNAL-16 "CenterSlit"
*MEAS_COND_AXIS_NAME_INTERNAL-17 "Filter"
*MEAS_COND_AXIS_NAME_INTERNAL-18 "ReceivingSlitBox1"
*MEAS_COND_AXIS_NAME_INTERNAL-19 "ReceivingSlitBox2"
*MEAS_COND_AXIS_NAME_INTERNAL-20 "ReceivingOptics"
*MEAS_COND_AXIS_NAME_INTERNAL-21 "ReceivingSollerSlit"
*MEAS_COND_AXIS_NAME_INTERNAL-22 "ReceivingAxdSlit"
*MEAS_COND_AXIS_NAME_INTERNAL-23 "ReceivingSlitBox1-_Axis"
*MEAS_COND_AXIS_NAME_INTERNAL-24 "ReceivingSlitBox2-_Axis"
*MEAS_COND_AXIS_NAME_INTERNAL-25 "ReceivingSlitBox2-Zd"
*MEAS_COND_AXIS_NAME_INTERNAL-26 "Attenuator"
*MEAS_COND_AXIS_NAME_INTERNAL-27 "CounterMonochromator"
*MEAS_COND_AXIS_NAME_INTERNAL-28 "CounterSlit"
*MEAS_COND_AXIS_NAME_INTERNAL-29 "IncidentPrimary"
*MEAS_COND_AXIS_NAME_INTERNAL-30 "PHA"
*MEAS_COND_AXIS_NAME_MAGICNO-0 "83951616.0000000000"
*MEAS_COND_AXIS_NAME_MAGICNO-1 "268632064.0000000000"
*MEAS_COND_AXIS_NAME_MAGICNO-2 "268500992.0000000000"
*MEAS_COND_AXIS_NAME_MAGICNO-3 "285278208.0000000000"
*MEAS_COND_AXIS_NAME_MAGICNO-4 "83951616.0000000000"
*MEAS_COND_AXIS_NAME_MAGICNO-5 "131072.0000000000"
*MEAS_COND_AXIS_NAME_MAGICNO-6 "131072.0000000000"
*MEAS_COND_AXIS_NAME_MAGICNO-7 "318898176.0000000000"
*MEAS_COND_AXIS_NAME_MAGICNO-8 "20971521.0000000000"
*MEAS_COND_AXIS_NAME_MAGICNO-9 "285343744.0000000000"
*MEAS_COND_AXIS_NAME_MAGICNO-10 "20971521.0000000000"
*MEAS_COND_AXIS_NAME_MAGICNO-11 "22020097.0000000000"
*MEAS_COND_AXIS_NAME_MAGICNO-12 "25165824.0000000000"
*MEAS_COND_AXIS_NAME_MAGICNO-13 "318898176.0000000000"
*MEAS_COND_AXIS_NAME_MAGICNO-14 "1.0000000000"
*MEAS_COND_AXIS_NAME_MAGICNO-15 "20971521.0000000000"
*MEAS_COND_AXIS_NAME_MAGICNO-16 "20971521.0000000000"
*MEAS_COND_AXIS_NAME_MAGICNO-17 "20971521.0000000000"
*MEAS_COND_AXIS_NAME_MAGICNO-18 "23068673.0000000000"
*MEAS_COND_AXIS_NAME_MAGICNO-19 "23068673.0000000000"
*MEAS_COND_AXIS_NAME_MAGICNO-20 "20971521.0000000000"
*MEAS_COND_AXIS_NAME_MAGICNO-21 "20971521.0000000000"
*MEAS_COND_AXIS_NAME_MAGICNO-22 "20971521.0000000000"
*MEAS_COND_AXIS_NAME_MAGICNO-23 "25165824.0000000000"
*MEAS_COND_AXIS_NAME_MAGICNO-24 "25165824.0000000000"
*MEAS_COND_AXIS_NAME_MAGICNO-25 "285343744.0000000000"
*MEAS_COND_AXIS_NAME_MAGICNO-26 "17301505.0000000000"
*MEAS_COND_AXIS_NAME_MAGICNO-27 "20971521.0000000000"
*MEAS_COND_AXIS_NAME_MAGICNO-28 "20971521.0000000000"
*MEAS_COND_AXIS_NAME_MAGICNO-29 "20971521.0000000000"
*MEAS_COND_AXIS_NAME_MAGICNO-30 "0.0000000000"
*MEAS_COND_AXIS_OFFSET-0 "-"
*MEAS_COND_AXIS_OFFSET-1 "-0.0310000000"
*MEAS_COND_AXIS_OFFSET-2 "0.5143000000"
*MEAS_COND_AXIS_OFFSET-3 "-"
*MEAS_COND_AXIS_OFFSET-4 "-"
*MEAS_COND_AXIS_OFFSET-5 "0.5143000000"
*MEAS_COND_AXIS_OFFSET-6 "-0.5453000000"
*MEAS_COND_AXIS_OFFSET-7 "-"
*MEAS_COND_AXIS_OFFSET-8 "-"
*MEAS_COND_AXIS_OFFSET-9 "-"
*MEAS_COND_AXIS_OFFSET-10 "-"
*MEAS_COND_AXIS_OFFSET-11 "-"
*MEAS_COND_AXIS_OFFSET-12 "-"
*MEAS_COND_AXIS_OFFSET-13 "-"
*MEAS_COND_AXIS_OFFSET-14 "-"
*MEAS_COND_AXIS_OFFSET-15 "-"
*MEAS_COND_AXIS_OFFSET-16 "-"
*MEAS_COND_AXIS_OFFSET-17 "-"
*MEAS_COND_AXIS_OFFSET-18 "-"
*MEAS_COND_AXIS_OFFSET-19 "-"
*MEAS_COND_AXIS_OFFSET-20 "-"
*MEAS_COND_AXIS_OFFSET-21 "-"
*MEAS_COND_AXIS_OFFSET-22 "-"
*MEAS_COND_AXIS_OFFSET-23 "-"
*MEAS_COND_AXIS_OFFSET-24 "-"
*MEAS_COND_AXIS_OFFSET-25 "-"
*MEAS_COND_AXIS_OFFSET-26 "-"
*MEAS_COND_AXIS_OFFSET-27 "-"
*MEAS_COND_AXIS_OFFSET-28 "-"
*MEAS_COND_AXIS_OFFSET-29 "-"
*MEAS_COND_AXIS_OFFSET-30 "-"
*MEAS_COND_AXIS_POSITION-0 "0.0000000000"
*MEAS_COND_AXIS_POSITION-1 "0.0000000000"
*MEAS_COND_AXIS_POSITION-2 "0.0000000000"
*MEAS_COND_AXIS_POSITION-3 "-2.9061800000"
*MEAS_COND_AXIS_POSITION-4 "0.0000000000"
*MEAS_COND_AXIS_POSITION-5 "0.0000000000"
*MEAS_COND_AXIS_POSITION-6 "0.0000000000"
*MEAS_COND_AXIS_POSITION-7 "-0.7498700000"
*MEAS_COND_AXIS_POSITION-8 "BB"
*MEAS_COND_AXIS_POSITION-9 "0.0000000000"
*MEAS_COND_AXIS_POSITION-10 "Soller_slit_5.0deg"
*MEAS_COND_AXIS_POSITION-11 "2/3deg"
*MEAS_COND_AXIS_POSITION-12 "2.2088000000"
*MEAS_COND_AXIS_POSITION-13 "-0.6412500000"
*MEAS_COND_AXIS_POSITION-14 "0.0000000000"
*MEAS_COND_AXIS_POSITION-15 "10.0mm"
*MEAS_COND_AXIS_POSITION-16 "None"
*MEAS_COND_AXIS_POSITION-17 "Cu_K-beta"
*MEAS_COND_AXIS_POSITION-18 "13.000mm"
*MEAS_COND_AXIS_POSITION-19 "13.000mm"
*MEAS_COND_AXIS_POSITION-20 "No_unit"
*MEAS_COND_AXIS_POSITION-21 "Soller_slit_5.0deg"
*MEAS_COND_AXIS_POSITION-22 "None"
*MEAS_COND_AXIS_POSITION-23 "13.0000000000"
*MEAS_COND_AXIS_POSITION-24 "13.0000000000"
*MEAS_COND_AXIS_POSITION-25 "0.0281300000"
*MEAS_COND_AXIS_POSITION-26 "Open"
*MEAS_COND_AXIS_POSITION-27 "None"
*MEAS_COND_AXIS_POSITION-28 "None"
*MEAS_COND_AXIS_POSITION-29 "None"
*MEAS_COND_AXIS_POSITION-30 "38.0000000000"
*MEAS_COND_AXIS_UNIT-0 "deg"
*MEAS_COND_AXIS_UNIT-1 "deg"
*MEAS_COND_AXIS_UNIT-2 "deg"
*MEAS_COND_AXIS_UNIT-3 "mm"
*MEAS_COND_AXIS_UNIT-4 "deg"
*MEAS_COND_AXIS_UNIT-5 "deg"
*MEAS_COND_AXIS_UNIT-6 "deg"
*MEAS_COND_AXIS_UNIT-7 "mm"
*MEAS_COND_AXIS_UNIT-8 ""
*MEAS_COND_AXIS_UNIT-9 "pulse"
*MEAS_COND_AXIS_UNIT-10 ""
*MEAS_COND_AXIS_UNIT-11 ""
*MEAS_COND_AXIS_UNIT-12 "mm"
*MEAS_COND_AXIS_UNIT-13 "mm"
*MEAS_COND_AXIS_UNIT-14 ""
*MEAS_COND_AXIS_UNIT-15 ""
*MEAS_COND_AXIS_UNIT-16 ""
*MEAS_COND_AXIS_UNIT-17 ""
*MEAS_COND_AXIS_UNIT-18 ""
*MEAS_COND_AXIS_UNIT-19 ""
*MEAS_COND_AXIS_UNIT-20 ""
*MEAS_COND_AXIS_UNIT-21 ""
*MEAS_COND_AXIS_UNIT-22 ""
*MEAS_COND_AXIS_UNIT-23 "mm"
*MEAS_COND_AXIS_UNIT-24 "mm"
*MEAS_COND_AXIS_UNIT-25 "mm"
*MEAS_COND_AXIS_UNIT-26 ""
*MEAS_COND_AXIS_UNIT-27 ""
*MEAS_COND_AXIS_UNIT-28 ""
*MEAS_COND_AXIS_UNIT-29 ""
*MEAS_COND_AXIS_UNIT-30 "div"
*MEAS_COND_COUNTER_CNTLOSS_CORR "0.0000000000"
*MEAS_COND_COUNTER_PHABASE "38.0000000000"
*MEAS_COND_COUNTER_PHAWINDOW "16.0000000000"
*MEAS_COND_COUNTER_PHA_UNIT "div"
*MEAS_COND_COUNTER_TAUDIFF "30.0000000000"
*MEAS_COND_COUNTER_TAUINT "0.0000000000"
*MEAS_COND_IRRADIATION_MODE "OFF"
*MEAS_COND_IRRADIATION_WIDTH ""
*MEAS_COND_OPT_ATTR "集中法"
*MEAS_COND_OPT_NAME "@集中法"
*MEAS_COND_UNSYMMETRIC_MODE "OFF"
*MEAS_COND_XG_CURRENT "30.0000000000"
*MEAS_COND_XG_VOLTAGE "40.0000000000"
*MEAS_COND_XG_WAVE_TYPE "Ka"
*MEAS_DATA_COUNT "5001.0000000000"
*MEAS_SCAN_AXIS_X "2θ/θ"
*MEAS_SCAN_AXIS_X_INTERNAL "TwoThetaTheta"
*MEAS_SCAN_END_TIME "12/20/22 20:32:37"
*MEAS_SCAN_MODE "CONTINUOUS"
*MEAS_SCAN_MONITOR "0"
*MEAS_SCAN_RESOLUTION_X "0.0002"
*MEAS_SCAN_SPEED "2.5"
*MEAS_SCAN_SPEED_UNIT "deg/min"
*MEAS_SCAN_START "20.0000000000"
*MEAS_SCAN_START_TIME "12/20/22 20:11:12"
*MEAS_SCAN_STEP "0.0100000000"
*MEAS_SCAN_STOP "70.0000000000"
*MEAS_SCAN_UNIT_X "deg"
*MEAS_SCAN_UNIT_Y "counts"
*RAS_HEADER_END
*RAS_INT_START
20.0000 800.0000 1.0000
20.0100 803.0000 1.0000
20.0200 802.0000 1.0000
20.0300 784.0000 1.0000
20.0400 795.0000 1.0000
20.0500 766.0000 1.0000
20.0600 779.0000 1.0000
20.0700 824.0000 1.0000
20.0800 755.0000 1.0000
20.0900 831.0000 1.0000
20.1000 809.0000 1.0000
20.1100 789.0000 1.0000
20.1200 796.0000 1.0000
20.1300 788.0000 1.0000
20.1400 798.0000 1.0000
20.1500 847.0000 1.0000
20.1600 826.0000 1.0000
20.1700 809.0000 1.0000
20.1800 782.0000 1.0000
20.1900 744.0000 1.0000
20.2000 819.0000 1.0000
20.2100 832.0000 1.0000
20.2200 824.0000 1.0000
20.2300 804.0000 1.0000
20.2400 765.0000 1.0000
20.2500 787.0000 1.0000
20.2600 842.0000 1.0000
20.2700 831.0000 1.0000
20.2800 800.0000 1.0000
20.2900 820.0000 1.0000
20.3000 814.0000 1.0000
20.3100 836.0000 1.0000
20.3200 809.0000 1.0000
20.3300 821.0000 1.0000
20.3400 771.0000 1.0000
20.3500 770.0000 1.0000
20.3600 805.0000 1.0000
20.3700 806.0000 1.0000
20.3800 790.0000 1.0000
20.3900 809.0000 1.0000
20.4000 767.0000 1.0000
20.4100 777.0000 1.0000
20.4200 818.0000 1.0000
20.4300 839.0000 1.0000
20.4400 798.0000 1.0000
20.4500 799.0000 1.0000
20.4600 787.0000 1.0000
20.4700 778.0000 1.0000
20.4800 828.0000 1.0000
20.4900 784.0000 1.0000
20.5000 783.0000 1.0000
20.5100 823.0000 1.0000
20.5200 818.0000 1.0000
20.5300 773.0000 1.0000
20.5400 827.0000 1.0000
20.5500 802.0000 1.0000
20.5600 837.0000 1.0000
20.5700 796.0000 1.0000
20.5800 811.0000 1.0000
20.5900 767.0000 1.0000
20.6000 792.0000 1.0000
20.6100 764.0000 1.0000
20.6200 760.0000 1.0000
20.6300 794.0000 1.0000
20.6400 803.0000 1.0000
20.6500 763.0000 1.0000
20.6600 835.0000 1.0000
20.6700 819.0000 1.0000
20.6800 845.0000 1.0000
20.6900 821.0000 1.0000
20.7000 823.0000 1.0000
20.7100 784.0000 1.0000
20.7200 792.0000 1.0000
20.7300 767.0000 1.0000
20.7400 815.0000 1.0000
20.7500 818.0000 1.0000
20.7600 788.0000 1.0000
20.7700 833.0000 1.0000
20.7800 812.0000 1.0000
20.7900 756.0000 1.0000
20.8000 773.0000 1.0000
20.8100 821.0000 1.0000
20.8200 807.0000 1.0000
20.8300 836.0000 1.0000
20.8400 783.0000 1.0000
20.8500 794.0000 1.0000
20.8600 805.0000 1.0000
20.8700 797.0000 1.0000
20.8800 762.0000 1.0000
20.8900 836.0000 1.0000
20.9000 818.0000 1.0000
20.9100 724.0000 1.0000
20.9200 822.0000 1.0000
20.9300 816.0000 1.0000
20.9400 792.0000 1.0000
20.9500 792.0000 1.0000
20.9600 788.0000 1.0000
20.9700 765.0000 1.0000
20.9800 806.0000 1.0000
20.9900 788.0000 1.0000
21.0000 788.0000 1.0000
21.0100 759.0000 1.0000
21.0200 822.0000 1.0000
21.0300 804.0000 1.0000
21.0400 807.0000 1.0000
21.0500 799.0000 1.0000
21.0600 784.0000 1.0000
21.0700 815.0000 1.0000
21.0800 747.0000 1.0000
21.0900 791.0000 1.0000
21.1000 759.0000 1.0000
21.1100 816.0000 1.0000
21.1200 842.0000 1.0000
21.1300 751.0000 1.0000
21.1400 789.0000 1.0000
21.1500 785.0000 1.0000
21.1600 828.0000 1.0000
21.1700 832.0000 1.0000
21.1800 761.0000 1.0000
21.1900 793.0000 1.0000
21.2000 791.0000 1.0000
21.2100 803.0000 1.0000
21.2200 774.0000 1.0000
21.2300 776.0000 1.0000
21.2400 802.0000 1.0000
21.2500 801.0000 1.0000
21.2600 780.0000 1.0000
21.2700 761.0000 1.0000
21.2800 789.0000 1.0000
21.2900 812.0000 1.0000
21.3000 803.0000 1.0000
21.3100 742.0000 1.0000
21.3200 775.0000 1.0000
21.3300 809.0000 1.0000
21.3400 840.0000 1.0000
21.3500 803.0000 1.0000
21.3600 759.0000 1.0000
21.3700 833.0000 1.0000
21.3800 791.0000 1.0000
21.3900 766.0000 1.0000
21.4000 768.0000 1.0000
21.4100 773.0000 1.0000
21.4200 756.0000 1.0000
21.4300 804.0000 1.0000
21.4400 748.0000 1.0000
21.4500 746.0000 1.0000
21.4600 840.0000 1.0000
21.4700 834.0000 1.0000
21.4800 816.0000 1.0000
21.4900 790.0000 1.0000
21.5000 796.0000 1.0000
21.5100 802.0000 1.0000
21.5200 808.0000 1.0000
21.5300 803.0000 1.0000
21.5400 849.0000 1.0000
21.5500 769.0000 1.0000
21.5600 753.0000 1.0000
21.5700 794.0000 1.0000
21.5800 822.0000 1.0000
21.5900 751.0000 1.0000
21.6000 855.0000 1.0000
21.6100 823.0000 1.0000
21.6200 856.0000 1.0000
21.6300 754.0000 1.0000
21.6400 770.0000 1.0000
21.6500 822.0000 1.0000
21.6600 791.0000 1.0000
21.6700 801.0000 1.0000
21.6800 801.0000 1.0000
21.6900 778.0000 1.0000
21.7000 814.0000 1.0000
21.7100 811.0000 1.0000
21.7200 803.0000 1.0000
21.7300 808.0000 1.0000
21.7400 761.0000 1.0000
21.7500 764.0000 1.0000
21.7600 771.0000 1.0000
21.7700 802.0000 1.0000
21.7800 798.0000 1.0000
21.7900 756.0000 1.0000
21.8000 782.0000 1.0000
21.8100 783.0000 1.0000
21.8200 797.0000 1.0000
21.8300 741.0000 1.0000
21.8400 836.0000 1.0000
21.8500 817.0000 1.0000
21.8600 798.0000 1.0000
21.8700 776.0000 1.0000
21.8800 769.0000 1.0000
21.8900 832.0000 1.0000
21.9000 807.0000 1.0000
21.9100 786.0000 1.0000
21.9200 750.0000 1.0000
21.9300 760.0000 1.0000
21.9400 779.0000 1.0000
21.9500 817.0000 1.0000
21.9600 811.0000 1.0000
21.9700 809.0000 1.0000
21.9800 825.0000 1.0000
21.9900 783.0000 1.0000
22.0000 779.0000 1.0000
22.0100 787.0000 1.0000
22.0200 796.0000 1.0000
22.0300 804.0000 1.0000
22.0400 778.0000 1.0000
22.0500 789.0000 1.0000
22.0600 769.0000 1.0000
22.0700 779.0000 1.0000
22.0800 827.0000 1.0000
22.0900 804.0000 1.0000
22.1000 785.0000 1.0000
22.1100 788.0000 1.0000
22.1200 840.0000 1.0000
22.1300 838.0000 1.0000
22.1400 817.0000 1.0000
22.1500 758.0000 1.0000
22.1600 795.0000 1.0000
22.1700 790.0000 1.0000
22.1800 814.0000 1.0000
22.1900 764.0000 1.0000
22.2000 838.0000 1.0000
22.2100 778.0000 1.0000
22.2200 764.0000 1.0000
22.2300 805.0000 1.0000
22.2400 793.0000 1.0000
22.2500 847.0000 1.0000
22.2600 813.0000 1.0000
22.2700 789.0000 1.0000
22.2800 772.0000 1.0000
22.2900 775.0000 1.0000
22.3000 806.0000 1.0000
22.3100 786.0000 1.0000
22.3200 787.0000 1.0000
22.3300 777.0000 1.0000
22.3400 783.0000 1.0000
22.3500 810.0000 1.0000
22.3600 747.0000 1.0000
22.3700 783.0000 1.0000
22.3800 777.0000 1.0000
22.3900 809.0000 1.0000
22.4000 803.0000 1.0000
22.4100 815.0000 1.0000
22.4200 791.0000 1.0000
22.4300 755.0000 1.0000
22.4400 814.0000 1.0000
22.4500 798.0000 1.0000
22.4600 772.0000 1.0000
22.4700 750.0000 1.0000
22.4800 769.0000 1.0000
22.4900 801.0000 1.0000
22.5000 782.0000 1.0000
22.5100 763.0000 1.0000
22.5200 763.0000 1.0000
22.5300 792.0000 1.0000
22.5400 771.0000 1.0000
22.5500 766.0000 1.0000
22.5600 751.0000 1.0000
22.5700 765.0000 1.0000
22.5800 758.0000 1.0000
22.5900 804.0000 1.0000
22.6000 790.0000 1.0000
22.6100 770.0000 1.0000
22.6200 761.0000 1.0000
22.6300 798.0000 1.0000
22.6400 765.0000 1.0000
22.6500 776.0000 1.0000
22.6600 782.0000 1.0000
22.6700 796.0000 1.0000
22.6800 767.0000 1.0000
22.6900 777.0000 1.0000
22.7000 771.0000 1.0000
22.7100 806.0000 1.0000
22.7200 786.0000 1.0000
22.7300 802.0000 1.0000
22.7400 746.0000 1.0000
22.7500 779.0000 1.0000
22.7600 750.0000 1.0000
22.7700 761.0000 1.0000
22.7800 736.0000 1.0000
22.7900 733.0000 1.0000
22.8000 794.0000 1.0000
22.8100 776.0000 1.0000
22.8200 742.0000 1.0000
22.8300 745.0000 1.0000
22.8400 767.0000 1.0000
22.8500 767.0000 1.0000
22.8600 736.0000 1.0000
22.8700 781.0000 1.0000
22.8800 744.0000 1.0000
22.8900 763.0000 1.0000
22.9000 812.0000 1.0000
22.9100 799.0000 1.0000
22.9200 780.0000 1.0000
22.9300 772.0000 1.0000
22.9400 763.0000 1.0000
22.9500 718.0000 1.0000
22.9600 786.0000 1.0000
22.9700 813.0000 1.0000
22.9800 790.0000 1.0000
22.9900 785.0000 1.0000
23.0000 804.0000 1.0000
23.0100 779.0000 1.0000
23.0200 738.0000 1.0000
23.0300 767.0000 1.0000
23.0400 718.0000 1.0000
23.0500 803.0000 1.0000
23.0600 769.0000 1.0000
23.0700 776.0000 1.0000
23.0800 779.0000 1.0000
23.0900 769.0000 1.0000
23.1000 796.0000 1.0000
23.1100 795.0000 1.0000
23.1200 757.0000 1.0000
23.1300 755.0000 1.0000
23.1400 768.0000 1.0000
23.1500 780.0000 1.0000
23.1600 773.0000 1.0000
23.1700 741.0000 1.0000
23.1800 772.0000 1.0000
23.1900 765.0000 1.0000
23.2000 779.0000 1.0000
23.2100 781.0000 1.0000
23.2200 799.0000 1.0000
23.2300 722.0000 1.0000
23.2400 731.0000 1.0000
23.2500 775.0000 1.0000
23.2600 737.0000 1.0000
23.2700 777.0000 1.0000
23.2800 770.0000 1.0000
23.2900 761.0000 1.0000
23.3000 732.0000 1.0000
23.3100 769.0000 1.0000
23.3200 759.0000 1.0000
23.3300 771.0000 1.0000
23.3400 742.0000 1.0000
23.3500 743.0000 1.0000
23.3600 717.0000 1.0000
23.3700 735.0000 1.0000
23.3800 763.0000 1.0000
23.3900 762.0000 1.0000
23.4000 763.0000 1.0000
23.4100 749.0000 1.0000
23.4200 716.0000 1.0000
23.4300 791.0000 1.0000
23.4400 751.0000 1.0000
23.4500 751.0000 1.0000
23.4600 754.0000 1.0000
23.4700 774.0000 1.0000
23.4800 830.0000 1.0000
23.4900 809.0000 1.0000
23.5000 782.0000 1.0000
23.5100 772.0000 1.0000
23.5200 757.0000 1.0000
23.5300 713.0000 1.0000
23.5400 786.0000 1.0000
23.5500 718.0000 1.0000
23.5600 760.0000 1.0000
23.5700 758.0000 1.0000
23.5800 804.0000 1.0000
23.5900 763.0000 1.0000
23.6000 800.0000 1.0000
23.6100 775.0000 1.0000
23.6200 766.0000 1.0000
23.6300 710.0000 1.0000
23.6400 733.0000 1.0000
23.6500 768.0000 1.0000
23.6600 771.0000 1.0000
23.6700 734.0000 1.0000
23.6800 741.0000 1.0000
23.6900 759.0000 1.0000
23.7000 787.0000 1.0000
23.7100 747.0000 1.0000
23.7200 750.0000 1.0000
23.7300 735.0000 1.0000
23.7400 739.0000 1.0000
23.7500 735.0000 1.0000
23.7600 780.0000 1.0000
23.7700 789.0000 1.0000
23.7800 765.0000 1.0000
23.7900 753.0000 1.0000
23.8000 760.0000 1.0000
23.8100 735.0000 1.0000
23.8200 767.0000 1.0000
23.8300 738.0000 1.0000
23.8400 795.0000 1.0000
23.8500 788.0000 1.0000
23.8600 797.0000 1.0000
23.8700 799.0000 1.0000
23.8800 786.0000 1.0000
23.8900 749.0000 1.0000
23.9000 813.0000 1.0000
23.9100 784.0000 1.0000
23.9200 808.0000 1.0000
23.9300 774.0000 1.0000
23.9400 773.0000 1.0000
23.9500 783.0000 1.0000
23.9600 750.0000 1.0000
23.9700 771.0000 1.0000
23.9800 791.0000 1.0000
23.9900 822.0000 1.0000
24.0000 828.0000 1.0000
24.0100 795.0000 1.0000
24.0200 795.0000 1.0000
24.0300 801.0000 1.0000
24.0400 816.0000 1.0000
24.0500 806.0000 1.0000
24.0600 795.0000 1.0000
24.0700 761.0000 1.0000
24.0800 809.0000 1.0000
24.0900 766.0000 1.0000
24.1000 805.0000 1.0000
24.1100 770.0000 1.0000
24.1200 780.0000 1.0000
24.1300 794.0000 1.0000
24.1400 774.0000 1.0000
24.1500 785.0000 1.0000
24.1600 796.0000 1.0000
24.1700 795.0000 1.0000
24.1800 792.0000 1.0000
24.1900 742.0000 1.0000
24.2000 813.0000 1.0000
24.2100 772.0000 1.0000
24.2200 786.0000 1.0000
24.2300 762.0000 1.0000
24.2400 810.0000 1.0000
24.2500 748.0000 1.0000
24.2600 767.0000 1.0000
24.2700 797.0000 1.0000
24.2800 748.0000 1.0000
24.2900 767.0000 1.0000
24.3000 783.0000 1.0000
24.3100 792.0000 1.0000
24.3200 731.0000 1.0000
24.3300 740.0000 1.0000
24.3400 739.0000 1.0000
24.3500 783.0000 1.0000
24.3600 767.0000 1.0000
24.3700 750.0000 1.0000
24.3800 789.0000 1.0000
24.3900 738.0000 1.0000
24.4000 759.0000 1.0000
24.4100 756.0000 1.0000
24.4200 769.0000 1.0000
24.4300 777.0000 1.0000
24.4400 737.0000 1.0000
24.4500 757.0000 1.0000
24.4600 793.0000 1.0000
24.4700 744.0000 1.0000
24.4800 772.0000 1.0000
24.4900 773.0000 1.0000
24.5000 751.0000 1.0000
24.5100 811.0000 1.0000
24.5200 768.0000 1.0000
24.5300 723.0000 1.0000
24.5400 766.0000 1.0000
24.5500 748.0000 1.0000
24.5600 758.0000 1.0000
24.5700 728.0000 1.0000
24.5800 747.0000 1.0000
24.5900 796.0000 1.0000
24.6000 767.0000 1.0000
24.6100 783.0000 1.0000
24.6200 727.0000 1.0000
24.6300 739.0000 1.0000
24.6400 773.0000 1.0000
24.6500 769.0000 1.0000
24.6600 757.0000 1.0000
24.6700 792.0000 1.0000
24.6800 764.0000 1.0000
24.6900 713.0000 1.0000
24.7000 753.0000 1.0000
24.7100 747.0000 1.0000
24.7200 781.0000 1.0000
24.7300 740.0000 1.0000
24.7400 747.0000 1.0000
24.7500 704.0000 1.0000
24.7600 740.0000 1.0000
24.7700 741.0000 1.0000
24.7800 744.0000 1.0000
24.7900 756.0000 1.0000
24.8000 741.0000 1.0000
24.8100 698.0000 1.0000
24.8200 725.0000 1.0000
24.8300 740.0000 1.0000
24.8400 765.0000 1.0000
24.8500 733.0000 1.0000
24.8600 763.0000 1.0000
24.8700 736.0000 1.0000
24.8800 734.0000 1.0000
24.8900 692.0000 1.0000
24.9000 736.0000 1.0000
24.9100 757.0000 1.0000
24.9200 714.0000 1.0000
24.9300 761.0000 1.0000
24.9400 714.0000 1.0000
24.9500 761.0000 1.0000
24.9600 739.0000 1.0000
24.9700 693.0000 1.0000
24.9800 724.0000 1.0000
24.9900 723.0000 1.0000
25.0000 759.0000 1.0000
25.0100 748.0000 1.0000
25.0200 714.0000 1.0000
25.0300 763.0000 1.0000
25.0400 760.0000 1.0000
25.0500 767.0000 1.0000
25.0600 719.0000 1.0000
25.0700 724.0000 1.0000
25.0800 775.0000 1.0000
25.0900 764.0000 1.0000
25.1000 727.0000 1.0000
25.1100 731.0000 1.0000
25.1200 749.0000 1.0000
25.1300 770.0000 1.0000
25.1400 739.0000 1.0000
25.1500 759.0000 1.0000
25.1600 691.0000 1.0000
25.1700 739.0000 1.0000
25.1800 726.0000 1.0000
25.1900 727.0000 1.0000
25.2000 745.0000 1.0000
25.2100 748.0000 1.0000
25.2200 742.0000 1.0000
25.2300 732.0000 1.0000
25.2400 733.0000 1.0000
25.2500 754.0000 1.0000
25.2600 743.0000 1.0000
25.2700 721.0000 1.0000
25.2800 761.0000 1.0000
25.2900 700.0000 1.0000
25.3000 786.0000 1.0000
25.3100 729.0000 1.0000
25.3200 724.0000 1.0000
25.3300 737.0000 1.0000
25.3400 736.0000 1.0000
25.3500 741.0000 1.0000
25.3600 715.0000 1.0000
25.3700 758.0000 1.0000
25.3800 751.0000 1.0000
25.3900 761.0000 1.0000
25.4000 728.0000 1.0000
25.4100 712.0000 1.0000
25.4200 721.0000 1.0000
25.4300 722.0000 1.0000
25.4400 748.0000 1.0000
25.4500 768.0000 1.0000
25.4600 739.0000 1.0000
25.4700 760.0000 1.0000
25.4800 763.0000 1.0000
25.4900 719.0000 1.0000
25.5000 736.0000 1.0000
25.5100 715.0000 1.0000
25.5200 734.0000 1.0000
25.5300 751.0000 1.0000
25.5400 756.0000 1.0000
25.5500 766.0000 1.0000
25.5600 749.0000 1.0000
25.5700 727.0000 1.0000
25.5800 755.0000 1.0000
25.5900 791.0000 1.0000
25.6000 760.0000 1.0000
25.6100 723.0000 1.0000
25.6200 765.0000 1.0000
25.6300 740.0000 1.0000
25.6400 747.0000 1.0000
25.6500 756.0000 1.0000
25.6600 769.0000 1.0000
25.6700 757.0000 1.0000
25.6800 804.0000 1.0000
25.6900 779.0000 1.0000
25.7000 789.0000 1.0000
25.7100 787.0000 1.0000
25.7200 723.0000 1.0000
25.7300 777.0000 1.0000
25.7400 784.0000 1.0000
25.7500 802.0000 1.0000
25.7600 749.0000 1.0000
25.7700 768.0000 1.0000
25.7800 751.0000 1.0000
25.7900 805.0000 1.0000
25.8000 746.0000 1.0000
25.8100 734.0000 1.0000
25.8200 775.0000 1.0000
25.8300 717.0000 1.0000
25.8400 783.0000 1.0000
25.8500 810.0000 1.0000
25.8600 793.0000 1.0000
25.8700 792.0000 1.0000
25.8800 769.0000 1.0000
25.8900 781.0000 1.0000
25.9000 752.0000 1.0000
25.9100 772.0000 1.0000
25.9200 821.0000 1.0000
25.9300 875.0000 1.0000
25.9400 786.0000 1.0000
25.9500 809.0000 1.0000
25.9600 775.0000 1.0000
25.9700 783.0000 1.0000
25.9800 818.0000 1.0000
25.9900 837.0000 1.0000
26.0000 775.0000 1.0000
26.0100 844.0000 1.0000
26.0200 842.0000 1.0000
26.0300 828.0000 1.0000
26.0400 837.0000 1.0000
26.0500 828.0000 1.0000
26.0600 844.0000 1.0000
26.0700 847.0000 1.0000
26.0800 893.0000 1.0000
26.0900 922.0000 1.0000
26.1000 908.0000 1.0000
26.1100 865.0000 1.0000
26.1200 874.0000 1.0000
26.1300 882.0000 1.0000
26.1400 978.0000 1.0000
26.1500 945.0000 1.0000
26.1600 964.0000 1.0000
26.1700 924.0000 1.0000
26.1800 1013.0000 1.0000
26.1900 1006.0000 1.0000
26.2000 1067.0000 1.0000
26.2100 1013.0000 1.0000
26.2200 1084.0000 1.0000
26.2300 1143.0000 1.0000
26.2400 1185.0000 1.0000
26.2500 1238.0000 1.0000
26.2600 1204.0000 1.0000
26.2700 1302.0000 1.0000
26.2800 1310.0000 1.0000
26.2900 1395.0000 1.0000
26.3000 1461.0000 1.0000
26.3100 1533.0000 1.0000
26.3200 1594.0000 1.0000
26.3300 1685.0000 1.0000
26.3400 1738.0000 1.0000
26.3500 1833.0000 1.0000
26.3600 1872.0000 1.0000
26.3700 2080.0000 1.0000
26.3800 2128.0000 1.0000
26.3900 2201.0000 1.0000
26.4000 2327.0000 1.0000
26.4100 2483.0000 1.0000
26.4200 2521.0000 1.0000
26.4300 2610.0000 1.0000
26.4400 2676.0000 1.0000
26.4500 2644.0000 1.0000
26.4600 2552.0000 1.0000
26.4700 2560.0000 1.0000
26.4800 2610.0000 1.0000
26.4900 2397.0000 1.0000
26.5000 2326.0000 1.0000
26.5100 2159.0000 1.0000
26.5200 2165.0000 1.0000
26.5300 2037.0000 1.0000
26.5400 1929.0000 1.0000
26.5500 1843.0000 1.0000
26.5600 1675.0000 1.0000
26.5700 1626.0000 1.0000
26.5800 1536.0000 1.0000
26.5900 1463.0000 1.0000
26.6000 1365.0000 1.0000
26.6100 1338.0000 1.0000
26.6200 1294.0000 1.0000
26.6300 1218.0000 1.0000
26.6400 1195.0000 1.0000
26.6500 1197.0000 1.0000
26.6600 1119.0000 1.0000
26.6700 1085.0000 1.0000
26.6800 1069.0000 1.0000
26.6900 1037.0000 1.0000
26.7000 1044.0000 1.0000
26.7100 973.0000 1.0000
26.7200 994.0000 1.0000
26.7300 981.0000 1.0000
26.7400 948.0000 1.0000
26.7500 925.0000 1.0000
26.7600 934.0000 1.0000
26.7700 881.0000 1.0000
26.7800 917.0000 1.0000
26.7900 858.0000 1.0000
26.8000 848.0000 1.0000
26.8100 840.0000 1.0000
26.8200 833.0000 1.0000
26.8300 798.0000 1.0000
26.8400 813.0000 1.0000
26.8500 813.0000 1.0000
26.8600 779.0000 1.0000
26.8700 813.0000 1.0000
26.8800 790.0000 1.0000
26.8900 816.0000 1.0000
26.9000 793.0000 1.0000
26.9100 804.0000 1.0000
26.9200 725.0000 1.0000
26.9300 718.0000 1.0000
26.9400 770.0000 1.0000
26.9500 752.0000 1.0000
26.9600 778.0000 1.0000
26.9700 744.0000 1.0000
26.9800 775.0000 1.0000
26.9900 709.0000 1.0000
27.0000 773.0000 1.0000
27.0100 772.0000 1.0000
27.0200 763.0000 1.0000
27.0300 720.0000 1.0000
27.0400 749.0000 1.0000
27.0500 734.0000 1.0000
27.0600 727.0000 1.0000
27.0700 741.0000 1.0000
27.0800 743.0000 1.0000
27.0900 696.0000 1.0000
27.1000 727.0000 1.0000
27.1100 786.0000 1.0000
27.1200 726.0000 1.0000
27.1300 684.0000 1.0000
27.1400 699.0000 1.0000
27.1500 675.0000 1.0000
27.1600 744.0000 1.0000
27.1700 753.0000 1.0000
27.1800 745.0000 1.0000
27.1900 725.0000 1.0000
27.2000 703.0000 1.0000
27.2100 731.0000 1.0000
27.2200 715.0000 1.0000
27.2300 709.0000 1.0000
27.2400 694.0000 1.0000
27.2500 707.0000 1.0000
27.2600 709.0000 1.0000
27.2700 693.0000 1.0000
27.2800 700.0000 1.0000
27.2900 737.0000 1.0000
27.3000 707.0000 1.0000
27.3100 668.0000 1.0000
27.3200 705.0000 1.0000
27.3300 698.0000 1.0000
27.3400 700.0000 1.0000
27.3500 675.0000 1.0000
27.3600 710.0000 1.0000
27.3700 705.0000 1.0000
27.3800 690.0000 1.0000
27.3900 677.0000 1.0000
27.4000 691.0000 1.0000
27.4100 661.0000 1.0000
27.4200 685.0000 1.0000
27.4300 691.0000 1.0000
27.4400 678.0000 1.0000
27.4500 713.0000 1.0000
27.4600 677.0000 1.0000
27.4700 706.0000 1.0000
27.4800 707.0000 1.0000
27.4900 670.0000 1.0000
27.5000 707.0000 1.0000
27.5100 671.0000 1.0000
27.5200 676.0000 1.0000
27.5300 690.0000 1.0000
27.5400 652.0000 1.0000
27.5500 660.0000 1.0000
27.5600 690.0000 1.0000
27.5700 674.0000 1.0000
27.5800 657.0000 1.0000
27.5900 669.0000 1.0000
27.6000 655.0000 1.0000
27.6100 646.0000 1.0000
27.6200 659.0000 1.0000
27.6300 624.0000 1.0000
27.6400 658.0000 1.0000
27.6500 640.0000 1.0000
27.6600 679.0000 1.0000
27.6700 675.0000 1.0000
27.6800 659.0000 1.0000
27.6900 679.0000 1.0000
27.7000 696.0000 1.0000
27.7100 644.0000 1.0000
27.7200 639.0000 1.0000
27.7300 698.0000 1.0000
27.7400 660.0000 1.0000
27.7500 654.0000 1.0000
27.7600 672.0000 1.0000
27.7700 670.0000 1.0000
27.7800 662.0000 1.0000
27.7900 640.0000 1.0000
27.8000 660.0000 1.0000
27.8100 662.0000 1.0000
27.8200 628.0000 1.0000
27.8300 656.0000 1.0000
27.8400 633.0000 1.0000
27.8500 669.0000 1.0000
27.8600 630.0000 1.0000
27.8700 690.0000 1.0000
27.8800 663.0000 1.0000
27.8900 670.0000 1.0000
27.9000 640.0000 1.0000
27.9100 662.0000 1.0000
27.9200 654.0000 1.0000
27.9300 632.0000 1.0000
27.9400 658.0000 1.0000
27.9500 655.0000 1.0000
27.9600 666.0000 1.0000
27.9700 663.0000 1.0000
27.9800 715.0000 1.0000
27.9900 676.0000 1.0000
28.0000 645.0000 1.0000
28.0100 636.0000 1.0000
28.0200 633.0000 1.0000
28.0300 670.0000 1.0000
28.0400 624.0000 1.0000
28.0500 678.0000 1.0000
28.0600 622.0000 1.0000
28.0700 674.0000 1.0000
28.0800 649.0000 1.0000
28.0900 644.0000 1.0000
28.1000 601.0000 1.0000
28.1100 647.0000 1.0000
28.1200 652.0000 1.0000
28.1300 659.0000 1.0000
28.1400 654.0000 1.0000
28.1500 662.0000 1.0000
28.1600 648.0000 1.0000
28.1700 637.0000 1.0000
28.1800 655.0000 1.0000
28.1900 664.0000 1.0000
28.2000 659.0000 1.0000
28.2100 647.0000 1.0000
28.2200 681.0000 1.0000
28.2300 627.0000 1.0000
28.2400 616.0000 1.0000
28.2500 612.0000 1.0000
28.2600 620.0000 1.0000
28.2700 615.0000 1.0000
28.2800 626.0000 1.0000
28.2900 632.0000 1.0000
28.3000 640.0000 1.0000
28.3100 618.0000 1.0000
28.3200 658.0000 1.0000
28.3300 662.0000 1.0000
28.3400 645.0000 1.0000
28.3500 664.0000 1.0000
28.3600 618.0000 1.0000
28.3700 642.0000 1.0000
28.3800 629.0000 1.0000
28.3900 627.0000 1.0000
28.4000 625.0000 1.0000
28.4100 615.0000 1.0000
28.4200 586.0000 1.0000
28.4300 619.0000 1.0000
28.4400 615.0000 1.0000
28.4500 648.0000 1.0000
28.4600 644.0000 1.0000
28.4700 647.0000 1.0000
28.4800 656.0000 1.0000
28.4900 640.0000 1.0000
28.5000 631.0000 1.0000
28.5100 608.0000 1.0000
28.5200 588.0000 1.0000
28.5300 616.0000 1.0000
28.5400 617.0000 1.0000
28.5500 596.0000 1.0000
28.5600 649.0000 1.0000
28.5700 627.0000 1.0000
28.5800 647.0000 1.0000
28.5900 630.0000 1.0000
28.6000 626.0000 1.0000
28.6100 628.0000 1.0000
28.6200 644.0000 1.0000
28.6300 613.0000 1.0000
28.6400 629.0000 1.0000
28.6500 632.0000 1.0000
28.6600 631.0000 1.0000
28.6700 623.0000 1.0000
28.6800 615.0000 1.0000
28.6900 626.0000 1.0000
28.7000 632.0000 1.0000
28.7100 653.0000 1.0000
28.7200 628.0000 1.0000
28.7300 631.0000 1.0000
28.7400 604.0000 1.0000
28.7500 653.0000 1.0000
28.7600 622.0000 1.0000
28.7700 561.0000 1.0000
28.7800 651.0000 1.0000
28.7900 648.0000 1.0000
28.8000 614.0000 1.0000
28.8100 645.0000 1.0000
28.8200 576.0000 1.0000
28.8300 610.0000 1.0000
28.8400 616.0000 1.0000
28.8500 625.0000 1.0000
28.8600 643.0000 1.0000
28.8700 640.0000 1.0000
28.8800 609.0000 1.0000
28.8900 583.0000 1.0000
28.9000 585.0000 1.0000
28.9100 590.0000 1.0000
28.9200 604.0000 1.0000
28.9300 631.0000 1.0000
28.9400 629.0000 1.0000
28.9500 681.0000 1.0000
28.9600 639.0000 1.0000
28.9700 642.0000 1.0000
28.9800 609.0000 1.0000
28.9900 593.0000 1.0000
29.0000 602.0000 1.0000
29.0100 652.0000 1.0000
29.0200 635.0000 1.0000
29.0300 594.0000 1.0000
29.0400 593.0000 1.0000
29.0500 584.0000 1.0000
29.0600 613.0000 1.0000
29.0700 588.0000 1.0000
29.0800 590.0000 1.0000
29.0900 598.0000 1.0000
29.1000 622.0000 1.0000
29.1100 584.0000 1.0000
29.1200 631.0000 1.0000
29.1300 654.0000 1.0000
29.1400 628.0000 1.0000
29.1500 599.0000 1.0000
29.1600 678.0000 1.0000
29.1700 605.0000 1.0000
29.1800 604.0000 1.0000
29.1900 631.0000 1.0000
29.2000 640.0000 1.0000
29.2100 593.0000 1.0000
29.2200 621.0000 1.0000
29.2300 622.0000 1.0000
29.2400 604.0000 1.0000
29.2500 625.0000 1.0000
29.2600 653.0000 1.0000
29.2700 653.0000 1.0000
29.2800 604.0000 1.0000
29.2900 601.0000 1.0000
29.3000 605.0000 1.0000
29.3100 671.0000 1.0000
29.3200 635.0000 1.0000
29.3300 606.0000 1.0000
29.3400 642.0000 1.0000
29.3500 609.0000 1.0000
29.3600 622.0000 1.0000
29.3700 661.0000 1.0000
29.3800 619.0000 1.0000
29.3900 603.0000 1.0000
29.4000 616.0000 1.0000
29.4100 636.0000 1.0000
29.4200 603.0000 1.0000
29.4300 651.0000 1.0000
29.4400 585.0000 1.0000
29.4500 593.0000 1.0000
29.4600 623.0000 1.0000
29.4700 619.0000 1.0000
29.4800 568.0000 1.0000
29.4900 637.0000 1.0000
29.5000 608.0000 1.0000
29.5100 625.0000 1.0000
29.5200 656.0000 1.0000
29.5300 594.0000 1.0000
29.5400 615.0000 1.0000
29.5500 593.0000 1.0000
29.5600 611.0000 1.0000
29.5700 618.0000 1.0000
29.5800 596.0000 1.0000
29.5900 587.0000 1.0000
29.6000 614.0000 1.0000
29.6100 592.0000 1.0000
29.6200 630.0000 1.0000
29.6300 624.0000 1.0000
29.6400 614.0000 1.0000
29.6500 599.0000 1.0000
29.6600 576.0000 1.0000
29.6700 575.0000 1.0000
29.6800 597.0000 1.0000
29.6900 618.0000 1.0000
29.7000 617.0000 1.0000
29.7100 590.0000 1.0000
29.7200 632.0000 1.0000
29.7300 634.0000 1.0000
29.7400 599.0000 1.0000
29.7500 609.0000 1.0000
29.7600 574.0000 1.0000
29.7700 568.0000 1.0000
29.7800 589.0000 1.0000
29.7900 575.0000 1.0000
29.8000 580.0000 1.0000
29.8100 611.0000 1.0000
29.8200 589.0000 1.0000
29.8300 569.0000 1.0000
29.8400 565.0000 1.0000
29.8500 567.0000 1.0000
29.8600 557.0000 1.0000
29.8700 574.0000 1.0000
29.8800 600.0000 1.0000
29.8900 565.0000 1.0000
29.9000 579.0000 1.0000
29.9100 618.0000 1.0000
29.9200 624.0000 1.0000
29.9300 595.0000 1.0000
29.9400 611.0000 1.0000
29.9500 580.0000 1.0000
29.9600 604.0000 1.0000
29.9700 574.0000 1.0000
29.9800 647.0000 1.0000
29.9900 633.0000 1.0000
30.0000 597.0000 1.0000
30.0100 590.0000 1.0000
30.0200 557.0000 1.0000
30.0300 551.0000 1.0000
30.0400 628.0000 1.0000
30.0500 631.0000 1.0000
30.0600 563.0000 1.0000
30.0700 579.0000 1.0000
30.0800 620.0000 1.0000
30.0900 600.0000 1.0000
30.1000 605.0000 1.0000
30.1100 572.0000 1.0000
30.1200 604.0000 1.0000
30.1300 589.0000 1.0000
30.1400 587.0000 1.0000
30.1500 589.0000 1.0000
30.1600 579.0000 1.0000
30.1700 612.0000 1.0000
30.1800 593.0000 1.0000
30.1900 616.0000 1.0000
30.2000 600.0000 1.0000
30.2100 562.0000 1.0000
30.2200 555.0000 1.0000
30.2300 584.0000 1.0000
30.2400 585.0000 1.0000
30.2500 589.0000 1.0000
30.2600 578.0000 1.0000
30.2700 575.0000 1.0000
30.2800 566.0000 1.0000
30.2900 604.0000 1.0000
30.3000 586.0000 1.0000
30.3100 561.0000 1.0000
30.3200 616.0000 1.0000
30.3300 612.0000 1.0000
30.3400 600.0000 1.0000
30.3500 584.0000 1.0000
30.3600 618.0000 1.0000
30.3700 552.0000 1.0000
30.3800 581.0000 1.0000
30.3900 573.0000 1.0000
30.4000 609.0000 1.0000
30.4100 588.0000 1.0000
30.4200 612.0000 1.0000
30.4300 591.0000 1.0000
30.4400 585.0000 1.0000
30.4500 574.0000 1.0000
30.4600 550.0000 1.0000
30.4700 576.0000 1.0000
30.4800 550.0000 1.0000
30.4900 611.0000 1.0000
30.5000 539.0000 1.0000
30.5100 564.0000 1.0000
30.5200 601.0000 1.0000
30.5300 561.0000 1.0000
30.5400 602.0000 1.0000
30.5500 591.0000 1.0000
30.5600 578.0000 1.0000
30.5700 586.0000 1.0000
30.5800 566.0000 1.0000
30.5900 549.0000 1.0000
30.6000 548.0000 1.0000
30.6100 584.0000 1.0000
30.6200 623.0000 1.0000
30.6300 602.0000 1.0000
30.6400 596.0000 1.0000
30.6500 597.0000 1.0000
30.6600 549.0000 1.0000
30.6700 564.0000 1.0000
30.6800 549.0000 1.0000
30.6900 565.0000 1.0000
30.7000 539.0000 1.0000
30.7100 520.0000 1.0000
30.7200 572.0000 1.0000
30.7300 561.0000 1.0000
30.7400 537.0000 1.0000
30.7500 561.0000 1.0000
30.7600 609.0000 1.0000
30.7700 552.0000 1.0000
30.7800 544.0000 1.0000
30.7900 573.0000 1.0000
30.8000 607.0000 1.0000
30.8100 582.0000 1.0000
30.8200 575.0000 1.0000
30.8300 570.0000 1.0000
30.8400 565.0000 1.0000
30.8500 601.0000 1.0000
30.8600 561.0000 1.0000
30.8700 561.0000 1.0000
30.8800 560.0000 1.0000
30.8900 593.0000 1.0000
30.9000 567.0000 1.0000
30.9100 585.0000 1.0000
30.9200 582.0000 1.0000
30.9300 565.0000 1.0000
30.9400 577.0000 1.0000
30.9500 570.0000 1.0000
30.9600 545.0000 1.0000
30.9700 546.0000 1.0000
30.9800 556.0000 1.0000
30.9900 596.0000 1.0000
31.0000 547.0000 1.0000
31.0100 587.0000 1.0000
31.0200 579.0000 1.0000
31.0300 589.0000 1.0000
31.0400 580.0000 1.0000
31.0500 590.0000 1.0000
31.0600 589.0000 1.0000
31.0700 551.0000 1.0000
31.0800 579.0000 1.0000
31.0900 594.0000 1.0000
31.1000 579.0000 1.0000
31.1100 564.0000 1.0000
31.1200 552.0000 1.0000
31.1300 563.0000 1.0000
31.1400 594.0000 1.0000
31.1500 588.0000 1.0000
31.1600 535.0000 1.0000
31.1700 570.0000 1.0000
31.1800 542.0000 1.0000
31.1900 561.0000 1.0000
31.2000 572.0000 1.0000
31.2100 568.0000 1.0000
31.2200 565.0000 1.0000
31.2300 592.0000 1.0000
31.2400 528.0000 1.0000
31.2500 559.0000 1.0000
31.2600 560.0000 1.0000
31.2700 584.0000 1.0000
31.2800 570.0000 1.0000
31.2900 555.0000 1.0000
31.3000 562.0000 1.0000
31.3100 558.0000 1.0000
31.3200 568.0000 1.0000
31.3300 524.0000 1.0000
31.3400 556.0000 1.0000
31.3500 492.0000 1.0000
31.3600 533.0000 1.0000
31.3700 553.0000 1.0000
31.3800 544.0000 1.0000
31.3900 561.0000 1.0000
31.4000 577.0000 1.0000
31.4100 569.0000 1.0000
31.4200 557.0000 1.0000
31.4300 552.0000 1.0000
31.4400 600.0000 1.0000
31.4500 549.0000 1.0000
31.4600 545.0000 1.0000
31.4700 551.0000 1.0000
31.4800 538.0000 1.0000
31.4900 556.0000 1.0000
31.5000 524.0000 1.0000
31.5100 535.0000 1.0000
31.5200 564.0000 1.0000
31.5300 582.0000 1.0000
31.5400 588.0000 1.0000
31.5500 576.0000 1.0000
31.5600 579.0000 1.0000
31.5700 581.0000 1.0000
31.5800 566.0000 1.0000
31.5900 570.0000 1.0000
31.6000 575.0000 1.0000
31.6100 571.0000 1.0000
31.6200 594.0000 1.0000
31.6300 531.0000 1.0000
31.6400 551.0000 1.0000
31.6500 581.0000 1.0000
31.6600 594.0000 1.0000
31.6700 552.0000 1.0000
31.6800 593.0000 1.0000
31.6900 533.0000 1.0000
31.7000 530.0000 1.0000
31.7100 549.0000 1.0000
31.7200 535.0000 1.0000
31.7300 543.0000 1.0000
31.7400 582.0000 1.0000
31.7500 521.0000 1.0000
31.7600 552.0000 1.0000
31.7700 562.0000 1.0000
31.7800 574.0000 1.0000
31.7900 544.0000 1.0000
31.8000 562.0000 1.0000
31.8100 539.0000 1.0000
31.8200 557.0000 1.0000
31.8300 532.0000 1.0000
31.8400 548.0000 1.0000
31.8500 566.0000 1.0000
31.8600 536.0000 1.0000
31.8700 533.0000 1.0000
31.8800 555.0000 1.0000
31.8900 558.0000 1.0000
31.9000 550.0000 1.0000
31.9100 566.0000 1.0000
31.9200 540.0000 1.0000
31.9300 546.0000 1.0000
31.9400 543.0000 1.0000
31.9500 512.0000 1.0000
31.9600 562.0000 1.0000
31.9700 548.0000 1.0000
31.9800 527.0000 1.0000
31.9900 541.0000 1.0000
32.0000 507.0000 1.0000
32.0100 534.0000 1.0000
32.0200 537.0000 1.0000
32.0300 547.0000 1.0000
32.0400 545.0000 1.0000
32.0500 544.0000 1.0000
32.0600 556.0000 1.0000
32.0700 548.0000 1.0000
32.0800 548.0000 1.0000
32.0900 530.0000 1.0000
32.1000 538.0000 1.0000
32.1100 520.0000 1.0000
32.1200 520.0000 1.0000
32.1300 543.0000 1.0000
32.1400 472.0000 1.0000
32.1500 514.0000 1.0000
32.1600 561.0000 1.0000
32.1700 564.0000 1.0000
32.1800 503.0000 1.0000
32.1900 542.0000 1.0000
32.2000 528.0000 1.0000
32.2100 562.0000 1.0000
32.2200 555.0000 1.0000
32.2300 524.0000 1.0000
32.2400 533.0000 1.0000
32.2500 542.0000 1.0000
32.2600 489.0000 1.0000
32.2700 508.0000 1.0000
32.2800 532.0000 1.0000
32.2900 585.0000 1.0000
32.3000 540.0000 1.0000
32.3100 542.0000 1.0000
32.3200 540.0000 1.0000
32.3300 525.0000 1.0000
32.3400 524.0000 1.0000
32.3500 537.0000 1.0000
32.3600 551.0000 1.0000
32.3700 512.0000 1.0000
32.3800 550.0000 1.0000
32.3900 520.0000 1.0000
32.4000 515.0000 1.0000
32.4100 538.0000 1.0000
32.4200 516.0000 1.0000
32.4300 492.0000 1.0000
32.4400 545.0000 1.0000
32.4500 558.0000 1.0000
32.4600 553.0000 1.0000
32.4700 520.0000 1.0000
32.4800 530.0000 1.0000
32.4900 549.0000 1.0000
32.5000 547.0000 1.0000
32.5100 543.0000 1.0000
32.5200 557.0000 1.0000
32.5300 536.0000 1.0000
32.5400 518.0000 1.0000
32.5500 547.0000 1.0000
32.5600 537.0000 1.0000
32.5700 536.0000 1.0000
32.5800 522.0000 1.0000
32.5900 534.0000 1.0000
32.6000 531.0000 1.0000
32.6100 535.0000 1.0000
32.6200 537.0000 1.0000
32.6300 584.0000 1.0000
32.6400 549.0000 1.0000
32.6500 506.0000 1.0000
32.6600 528.0000 1.0000
32.6700 539.0000 1.0000
32.6800 517.0000 1.0000
32.6900 509.0000 1.0000
32.7000 534.0000 1.0000
32.7100 527.0000 1.0000
32.7200 525.0000 1.0000
32.7300 513.0000 1.0000
32.7400 507.0000 1.0000
32.7500 562.0000 1.0000
32.7600 529.0000 1.0000
32.7700 539.0000 1.0000
32.7800 481.0000 1.0000
32.7900 546.0000 1.0000
32.8000 545.0000 1.0000
32.8100 529.0000 1.0000
32.8200 539.0000 1.0000
32.8300 538.0000 1.0000
32.8400 555.0000 1.0000
32.8500 560.0000 1.0000
32.8600 560.0000 1.0000
32.8700 551.0000 1.0000
32.8800 538.0000 1.0000
32.8900 558.0000 1.0000
32.9000 564.0000 1.0000
32.9100 548.0000 1.0000
32.9200 540.0000 1.0000
32.9300 534.0000 1.0000
32.9400 559.0000 1.0000
32.9500 526.0000 1.0000
32.9600 529.0000 1.0000
32.9700 565.0000 1.0000
32.9800 570.0000 1.0000
32.9900 567.0000 1.0000
33.0000 533.0000 1.0000
33.0100 573.0000 1.0000
33.0200 578.0000 1.0000
33.0300 589.0000 1.0000
33.0400 555.0000 1.0000
33.0500 610.0000 1.0000
33.0600 604.0000 1.0000
33.0700 613.0000 1.0000
33.0800 620.0000 1.0000
33.0900 628.0000 1.0000
33.1000 614.0000 1.0000
33.1100 571.0000 1.0000
33.1200 627.0000 1.0000
33.1300 613.0000 1.0000
33.1400 587.0000 1.0000
33.1500 616.0000 1.0000
33.1600 564.0000 1.0000
33.1700 631.0000 1.0000
33.1800 604.0000 1.0000
33.1900 611.0000 1.0000
33.2000 619.0000 1.0000
33.2100 623.0000 1.0000
33.2200 590.0000 1.0000
33.2300 595.0000 1.0000
33.2400 570.0000 1.0000
33.2500 562.0000 1.0000
33.2600 573.0000 1.0000
33.2700 567.0000 1.0000
33.2800 571.0000 1.0000
33.2900 583.0000 1.0000
33.3000 577.0000 1.0000
33.3100 633.0000 1.0000
33.3200 620.0000 1.0000
33.3300 606.0000 1.0000
33.3400 597.0000 1.0000
33.3500 628.0000 1.0000
33.3600 641.0000 1.0000
33.3700 585.0000 1.0000
33.3800 617.0000 1.0000
33.3900 647.0000 1.0000
33.4000 635.0000 1.0000
33.4100 644.0000 1.0000
33.4200 670.0000 1.0000
33.4300 661.0000 1.0000
33.4400 643.0000 1.0000
33.4500 689.0000 1.0000
33.4600 708.0000 1.0000
33.4700 781.0000 1.0000
33.4800 752.0000 1.0000
33.4900 755.0000 1.0000
33.5000 827.0000 1.0000
33.5100 846.0000 1.0000
33.5200 889.0000 1.0000
33.5300 897.0000 1.0000
33.5400 978.0000 1.0000
33.5500 969.0000 1.0000
33.5600 1021.0000 1.0000
33.5700 1141.0000 1.0000
33.5800 1133.0000 1.0000
33.5900 1101.0000 1.0000
33.6000 1173.0000 1.0000
33.6100 1263.0000 1.0000
33.6200 1337.0000 1.0000
33.6300 1382.0000 1.0000
33.6400 1293.0000 1.0000
33.6500 1361.0000 1.0000
33.6600 1383.0000 1.0000
33.6700 1389.0000 1.0000
33.6800 1335.0000 1.0000
33.6900 1283.0000 1.0000
33.7000 1234.0000 1.0000
33.7100 1186.0000 1.0000
33.7200 1185.0000 1.0000
33.7300 1176.0000 1.0000
33.7400 1145.0000 1.0000
33.7500 1076.0000 1.0000
33.7600 1041.0000 1.0000
33.7700 977.0000 1.0000
33.7800 994.0000 1.0000
33.7900 915.0000 1.0000
33.8000 855.0000 1.0000
33.8100 872.0000 1.0000
33.8200 801.0000 1.0000
33.8300 768.0000 1.0000
33.8400 787.0000 1.0000
33.8500 797.0000 1.0000
33.8600 705.0000 1.0000
33.8700 688.0000 1.0000
33.8800 696.0000 1.0000
33.8900 660.0000 1.0000
33.9000 708.0000 1.0000
33.9100 674.0000 1.0000
33.9200 645.0000 1.0000
33.9300 613.0000 1.0000
33.9400 635.0000 1.0000
33.9500 600.0000 1.0000
33.9600 604.0000 1.0000
33.9700 590.0000 1.0000
33.9800 609.0000 1.0000
33.9900 559.0000 1.0000
34.0000 617.0000 1.0000
34.0100 591.0000 1.0000
34.0200 559.0000 1.0000
34.0300 520.0000 1.0000
34.0400 573.0000 1.0000
34.0500 581.0000 1.0000
34.0600 546.0000 1.0000
34.0700 503.0000 1.0000
34.0800 526.0000 1.0000
34.0900 517.0000 1.0000
34.1000 546.0000 1.0000
34.1100 558.0000 1.0000
34.1200 558.0000 1.0000
34.1300 533.0000 1.0000
34.1400 530.0000 1.0000
34.1500 533.0000 1.0000
34.1600 493.0000 1.0000
34.1700 516.0000 1.0000
34.1800 538.0000 1.0000
34.1900 498.0000 1.0000
34.2000 505.0000 1.0000
34.2100 478.0000 1.0000
34.2200 518.0000 1.0000
34.2300 482.0000 1.0000
34.2400 490.0000 1.0000
34.2500 493.0000 1.0000
34.2600 484.0000 1.0000
34.2700 480.0000 1.0000
34.2800 541.0000 1.0000
34.2900 495.0000 1.0000
34.3000 516.0000 1.0000
34.3100 491.0000 1.0000
34.3200 502.0000 1.0000
34.3300 497.0000 1.0000
34.3400 502.0000 1.0000
34.3500 492.0000 1.0000
34.3600 467.0000 1.0000
34.3700 504.0000 1.0000
34.3800 482.0000 1.0000
34.3900 465.0000 1.0000
34.4000 460.0000 1.0000
34.4100 453.0000 1.0000
34.4200 477.0000 1.0000
34.4300 483.0000 1.0000
34.4400 492.0000 1.0000
34.4500 469.0000 1.0000
34.4600 491.0000 1.0000
34.4700 490.0000 1.0000
34.4800 451.0000 1.0000
34.4900 492.0000 1.0000
34.5000 460.0000 1.0000
34.5100 518.0000 1.0000
34.5200 456.0000 1.0000
34.5300 504.0000 1.0000
34.5400 477.0000 1.0000
34.5500 480.0000 1.0000
34.5600 487.0000 1.0000
34.5700 486.0000 1.0000
34.5800 475.0000 1.0000
34.5900 472.0000 1.0000
34.6000 468.0000 1.0000
34.6100 478.0000 1.0000
34.6200 506.0000 1.0000
34.6300 463.0000 1.0000
34.6400 491.0000 1.0000
34.6500 481.0000 1.0000
34.6600 461.0000 1.0000
34.6700 484.0000 1.0000
34.6800 462.0000 1.0000
34.6900 460.0000 1.0000
34.7000 468.0000 1.0000
34.7100 470.0000 1.0000
34.7200 475.0000 1.0000
34.7300 478.0000 1.0000
34.7400 442.0000 1.0000
34.7500 490.0000 1.0000
34.7600 470.0000 1.0000
34.7700 481.0000 1.0000
34.7800 441.0000 1.0000
34.7900 456.0000 1.0000
34.8000 462.0000 1.0000
34.8100 465.0000 1.0000
34.8200 431.0000 1.0000
34.8300 484.0000 1.0000
34.8400 458.0000 1.0000
34.8500 471.0000 1.0000
34.8600 416.0000 1.0000
34.8700 467.0000 1.0000
34.8800 452.0000 1.0000
34.8900 440.0000 1.0000
34.9000 468.0000 1.0000
34.9100 463.0000 1.0000
34.9200 462.0000 1.0000
34.9300 487.0000 1.0000
34.9400 455.0000 1.0000
34.9500 439.0000 1.0000
34.9600 441.0000 1.0000
34.9700 454.0000 1.0000
34.9800 487.0000 1.0000
34.9900 452.0000 1.0000
35.0000 472.0000 1.0000
35.0100 426.0000 1.0000
35.0200 433.0000 1.0000
35.0300 426.0000 1.0000
35.0400 452.0000 1.0000
35.0500 431.0000 1.0000
35.0600 435.0000 1.0000
35.0700 431.0000 1.0000
35.0800 463.0000 1.0000
35.0900 440.0000 1.0000
35.1000 486.0000 1.0000
35.1100 430.0000 1.0000
35.1200 456.0000 1.0000
35.1300 463.0000 1.0000
35.1400 451.0000 1.0000
35.1500 471.0000 1.0000
35.1600 453.0000 1.0000
35.1700 458.0000 1.0000
35.1800 483.0000 1.0000
35.1900 468.0000 1.0000
35.2000 463.0000 1.0000
35.2100 459.0000 1.0000
35.2200 446.0000 1.0000
35.2300 503.0000 1.0000
35.2400 469.0000 1.0000
35.2500 480.0000 1.0000
35.2600 483.0000 1.0000
35.2700 497.0000 1.0000
35.2800 509.0000 1.0000
35.2900 491.0000 1.0000
35.3000 482.0000 1.0000
35.3100 470.0000 1.0000
35.3200 449.0000 1.0000
35.3300 457.0000 1.0000
35.3400 477.0000 1.0000
35.3500 494.0000 1.0000
35.3600 481.0000 1.0000
35.3700 502.0000 1.0000
35.3800 502.0000 1.0000
35.3900 522.0000 1.0000
35.4000 544.0000 1.0000
35.4100 546.0000 1.0000
35.4200 536.0000 1.0000
35.4300 560.0000 1.0000
35.4400 543.0000 1.0000
35.4500 608.0000 1.0000
35.4600 582.0000 1.0000
35.4700 636.0000 1.0000
35.4800 619.0000 1.0000
35.4900 695.0000 1.0000
35.5000 687.0000 1.0000
35.5100 732.0000 1.0000
35.5200 761.0000 1.0000
35.5300 763.0000 1.0000
35.5400 774.0000 1.0000
35.5500 787.0000 1.0000
35.5600 777.0000 1.0000
35.5700 799.0000 1.0000
35.5800 802.0000 1.0000
35.5900 750.0000 1.0000
35.6000 755.0000 1.0000
35.6100 766.0000 1.0000
35.6200 780.0000 1.0000
35.6300 752.0000 1.0000
35.6400 683.0000 1.0000
35.6500 681.0000 1.0000
35.6600 663.0000 1.0000
35.6700 690.0000 1.0000
35.6800 650.0000 1.0000
35.6900 648.0000 1.0000
35.7000 593.0000 1.0000
35.7100 603.0000 1.0000
35.7200 560.0000 1.0000
35.7300 529.0000 1.0000
35.7400 508.0000 1.0000
35.7500 485.0000 1.0000
35.7600 501.0000 1.0000
35.7700 484.0000 1.0000
35.7800 498.0000 1.0000
35.7900 467.0000 1.0000
35.8000 482.0000 1.0000
35.8100 493.0000 1.0000
35.8200 464.0000 1.0000
35.8300 493.0000 1.0000
35.8400 411.0000 1.0000
35.8500 434.0000 1.0000
35.8600 396.0000 1.0000
35.8700 429.0000 1.0000
35.8800 492.0000 1.0000
35.8900 485.0000 1.0000
35.9000 460.0000 1.0000
35.9100 427.0000 1.0000
35.9200 461.0000 1.0000
35.9300 409.0000 1.0000
35.9400 405.0000 1.0000
35.9500 411.0000 1.0000
35.9600 443.0000 1.0000
35.9700 438.0000 1.0000
35.9800 444.0000 1.0000
35.9900 430.0000 1.0000
36.0000 421.0000 1.0000
36.0100 408.0000 1.0000
36.0200 439.0000 1.0000
36.0300 393.0000 1.0000
36.0400 412.0000 1.0000
36.0500 412.0000 1.0000
36.0600 409.0000 1.0000
36.0700 429.0000 1.0000
36.0800 419.0000 1.0000
36.0900 393.0000 1.0000
36.1000 424.0000 1.0000
36.1100 449.0000 1.0000
36.1200 419.0000 1.0000
36.1300 435.0000 1.0000
36.1400 401.0000 1.0000
36.1500 445.0000 1.0000
36.1600 435.0000 1.0000
36.1700 437.0000 1.0000
36.1800 423.0000 1.0000
36.1900 448.0000 1.0000
36.2000 423.0000 1.0000
36.2100 441.0000 1.0000
36.2200 441.0000 1.0000
36.2300 417.0000 1.0000
36.2400 416.0000 1.0000
36.2500 449.0000 1.0000
36.2600 423.0000 1.0000
36.2700 427.0000 1.0000
36.2800 450.0000 1.0000
36.2900 436.0000 1.0000
36.3000 417.0000 1.0000
36.3100 440.0000 1.0000
36.3200 411.0000 1.0000
36.3300 430.0000 1.0000
36.3400 421.0000 1.0000
36.3500 415.0000 1.0000
36.3600 409.0000 1.0000
36.3700 404.0000 1.0000
36.3800 416.0000 1.0000
36.3900 409.0000 1.0000
36.4000 419.0000 1.0000
36.4100 417.0000 1.0000
36.4200 406.0000 1.0000
36.4300 440.0000 1.0000
36.4400 413.0000 1.0000
36.4500 428.0000 1.0000
36.4600 445.0000 1.0000
36.4700 429.0000 1.0000
36.4800 451.0000 1.0000
36.4900 421.0000 1.0000
36.5000 408.0000 1.0000
36.5100 413.0000 1.0000
36.5200 426.0000 1.0000
36.5300 400.0000 1.0000
36.5400 416.0000 1.0000
36.5500 408.0000 1.0000
36.5600 383.0000 1.0000
36.5700 439.0000 1.0000
36.5800 434.0000 1.0000
36.5900 421.0000 1.0000
36.6000 438.0000 1.0000
36.6100 420.0000 1.0000
36.6200 397.0000 1.0000
36.6300 399.0000 1.0000
36.6400 455.0000 1.0000
36.6500 417.0000 1.0000
36.6600 426.0000 1.0000
36.6700 424.0000 1.0000
36.6800 440.0000 1.0000
36.6900 440.0000 1.0000
36.7000 434.0000 1.0000
36.7100 408.0000 1.0000
36.7200 417.0000 1.0000
36.7300 424.0000 1.0000
36.7400 398.0000 1.0000
36.7500 400.0000 1.0000
36.7600 419.0000 1.0000
36.7700 428.0000 1.0000
36.7800 432.0000 1.0000
36.7900 445.0000 1.0000
36.8000 429.0000 1.0000
36.8100 430.0000 1.0000
36.8200 419.0000 1.0000
36.8300 445.0000 1.0000
36.8400 417.0000 1.0000
36.8500 443.0000 1.0000
36.8600 429.0000 1.0000
36.8700 419.0000 1.0000
36.8800 387.0000 1.0000
36.8900 414.0000 1.0000
36.9000 417.0000 1.0000
36.9100 415.0000 1.0000
36.9200 391.0000 1.0000
36.9300 422.0000 1.0000
36.9400 427.0000 1.0000
36.9500 410.0000 1.0000
36.9600 431.0000 1.0000
36.9700 404.0000 1.0000
36.9800 405.0000 1.0000
36.9900 438.0000 1.0000
37.0000 416.0000 1.0000
37.0100 437.0000 1.0000
37.0200 441.0000 1.0000
37.0300 427.0000 1.0000
37.0400 426.0000 1.0000
37.0500 422.0000 1.0000
37.0600 406.0000 1.0000
37.0700 417.0000 1.0000
37.0800 405.0000 1.0000
37.0900 434.0000 1.0000
37.1000 437.0000 1.0000
37.1100 448.0000 1.0000
37.1200 421.0000 1.0000
37.1300 430.0000 1.0000
37.1400 426.0000 1.0000
37.1500 440.0000 1.0000
37.1600 434.0000 1.0000
37.1700 440.0000 1.0000
37.1800 451.0000 1.0000
37.1900 422.0000 1.0000
37.2000 450.0000 1.0000
37.2100 440.0000 1.0000
37.2200 445.0000 1.0000
37.2300 466.0000 1.0000
37.2400 451.0000 1.0000
37.2500 447.0000 1.0000
37.2600 467.0000 1.0000
37.2700 447.0000 1.0000
37.2800 457.0000 1.0000
37.2900 462.0000 1.0000
37.3000 487.0000 1.0000
37.3100 478.0000 1.0000
37.3200 483.0000 1.0000
37.3300 507.0000 1.0000
37.3400 469.0000 1.0000
37.3500 508.0000 1.0000
37.3600 490.0000 1.0000
37.3700 555.0000 1.0000
37.3800 531.0000 1.0000
37.3900 577.0000 1.0000
37.4000 570.0000 1.0000
37.4100 567.0000 1.0000
37.4200 613.0000 1.0000
37.4300 628.0000 1.0000
37.4400 625.0000 1.0000
37.4500 657.0000 1.0000
37.4600 686.0000 1.0000
37.4700 714.0000 1.0000
37.4800 726.0000 1.0000
37.4900 778.0000 1.0000
37.5000 785.0000 1.0000
37.5100 819.0000 1.0000
37.5200 841.0000 1.0000
37.5300 922.0000 1.0000
37.5400 939.0000 1.0000
37.5500 1010.0000 1.0000
37.5600 1102.0000 1.0000
37.5700 1190.0000 1.0000
37.5800 1222.0000 1.0000
37.5900 1323.0000 1.0000
37.6000 1368.0000 1.0000
37.6100 1526.0000 1.0000
37.6200 1533.0000 1.0000
37.6300 1633.0000 1.0000
37.6400 1752.0000 1.0000
37.6500 1926.0000 1.0000
37.6600 1987.0000 1.0000
37.6700 2058.0000 1.0000
37.6800 2097.0000 1.0000
37.6900 2092.0000 1.0000
37.7000 2125.0000 1.0000
37.7100 2158.0000 1.0000
37.7200 2144.0000 1.0000
37.7300 2198.0000 1.0000
37.7400 2108.0000 1.0000
37.7500 2039.0000 1.0000
37.7600 2025.0000 1.0000
37.7700 1969.0000 1.0000
37.7800 1927.0000 1.0000
37.7900 1775.0000 1.0000
37.8000 1735.0000 1.0000
37.8100 1699.0000 1.0000
37.8200 1553.0000 1.0000
37.8300 1508.0000 1.0000
37.8400 1416.0000 1.0000
37.8500 1318.0000 1.0000
37.8600 1263.0000 1.0000
37.8700 1153.0000 1.0000
37.8800 1040.0000 1.0000
37.8900 1059.0000 1.0000
37.9000 988.0000 1.0000
37.9100 910.0000 1.0000
37.9200 840.0000 1.0000
37.9300 838.0000 1.0000
37.9400 770.0000 1.0000
37.9500 729.0000 1.0000
37.9600 730.0000 1.0000
37.9700 691.0000 1.0000
37.9800 631.0000 1.0000
37.9900 620.0000 1.0000
38.0000 602.0000 1.0000
38.0100 544.0000 1.0000
38.0200 548.0000 1.0000
38.0300 547.0000 1.0000
38.0400 540.0000 1.0000
38.0500 507.0000 1.0000
38.0600 501.0000 1.0000
38.0700 481.0000 1.0000
38.0800 501.0000 1.0000
38.0900 512.0000 1.0000
38.1000 454.0000 1.0000
38.1100 484.0000 1.0000
38.1200 452.0000 1.0000
38.1300 455.0000 1.0000
38.1400 445.0000 1.0000
38.1500 416.0000 1.0000
38.1600 478.0000 1.0000
38.1700 445.0000 1.0000
38.1800 413.0000 1.0000
38.1900 439.0000 1.0000
38.2000 421.0000 1.0000
38.2100 438.0000 1.0000
38.2200 418.0000 1.0000
38.2300 412.0000 1.0000
38.2400 413.0000 1.0000
38.2500 415.0000 1.0000
38.2600 411.0000 1.0000
38.2700 399.0000 1.0000
38.2800 400.0000 1.0000
38.2900 404.0000 1.0000
38.3000 368.0000 1.0000
38.3100 376.0000 1.0000
38.3200 420.0000 1.0000
38.3300 407.0000 1.0000
38.3400 362.0000 1.0000
38.3500 383.0000 1.0000
38.3600 411.0000 1.0000
38.3700 361.0000 1.0000
38.3800 380.0000 1.0000
38.3900 379.0000 1.0000
38.4000 404.0000 1.0000
38.4100 419.0000 1.0000
38.4200 395.0000 1.0000
38.4300 397.0000 1.0000
38.4400 399.0000 1.0000
38.4500 394.0000 1.0000
38.4600 405.0000 1.0000
38.4700 389.0000 1.0000
38.4800 380.0000 1.0000
38.4900 372.0000 1.0000
38.5000 370.0000 1.0000
38.5100 368.0000 1.0000
38.5200 385.0000 1.0000
38.5300 387.0000 1.0000
38.5400 386.0000 1.0000
38.5500 368.0000 1.0000
38.5600 374.0000 1.0000
38.5700 371.0000 1.0000
38.5800 372.0000 1.0000
38.5900 355.0000 1.0000
38.6000 367.0000 1.0000
38.6100 420.0000 1.0000
38.6200 388.0000 1.0000
38.6300 375.0000 1.0000
38.6400 392.0000 1.0000
38.6500 365.0000 1.0000
38.6600 392.0000 1.0000
38.6700 373.0000 1.0000
38.6800 387.0000 1.0000
38.6900 408.0000 1.0000
38.7000 383.0000 1.0000
38.7100 382.0000 1.0000
38.7200 397.0000 1.0000
38.7300 381.0000 1.0000
38.7400 399.0000 1.0000
38.7500 424.0000 1.0000
38.7600 388.0000 1.0000
38.7700 373.0000 1.0000
38.7800 380.0000 1.0000
38.7900 408.0000 1.0000
38.8000 388.0000 1.0000
38.8100 395.0000 1.0000
38.8200 364.0000 1.0000
38.8300 397.0000 1.0000
38.8400 401.0000 1.0000
38.8500 387.0000 1.0000
38.8600 394.0000 1.0000
38.8700 399.0000 1.0000
38.8800 424.0000 1.0000
38.8900 407.0000 1.0000
38.9000 403.0000 1.0000
38.9100 361.0000 1.0000
38.9200 393.0000 1.0000
38.9300 386.0000 1.0000
38.9400 381.0000 1.0000
38.9500 360.0000 1.0000
38.9600 391.0000 1.0000
38.9700 396.0000 1.0000
38.9800 381.0000 1.0000
38.9900 371.0000 1.0000
39.0000 346.0000 1.0000
39.0100 370.0000 1.0000
39.0200 359.0000 1.0000
39.0300 386.0000 1.0000
39.0400 390.0000 1.0000
39.0500 406.0000 1.0000
39.0600 348.0000 1.0000
39.0700 371.0000 1.0000
39.0800 357.0000 1.0000
39.0900 366.0000 1.0000
39.1000 349.0000 1.0000
39.1100 327.0000 1.0000
39.1200 368.0000 1.0000
39.1300 338.0000 1.0000
39.1400 355.0000 1.0000
39.1500 355.0000 1.0000
39.1600 332.0000 1.0000
39.1700 370.0000 1.0000
39.1800 363.0000 1.0000
39.1900 353.0000 1.0000
39.2000 371.0000 1.0000
39.2100 335.0000 1.0000
39.2200 376.0000 1.0000
39.2300 359.0000 1.0000
39.2400 351.0000 1.0000
39.2500 371.0000 1.0000
39.2600 366.0000 1.0000
39.2700 377.0000 1.0000
39.2800 330.0000 1.0000
39.2900 358.0000 1.0000
39.3000 360.0000 1.0000
39.3100 337.0000 1.0000
39.3200 371.0000 1.0000
39.3300 373.0000 1.0000
39.3400 361.0000 1.0000
39.3500 341.0000 1.0000
39.3600 383.0000 1.0000
39.3700 350.0000 1.0000
39.3800 352.0000 1.0000
39.3900 380.0000 1.0000
39.4000 382.0000 1.0000
39.4100 337.0000 1.0000
39.4200 360.0000 1.0000
39.4300 377.0000 1.0000
39.4400 375.0000 1.0000
39.4500 343.0000 1.0000
39.4600 368.0000 1.0000
39.4700 323.0000 1.0000
39.4800 346.0000 1.0000
39.4900 346.0000 1.0000
39.5000 356.0000 1.0000
39.5100 347.0000 1.0000
39.5200 339.0000 1.0000
39.5300 366.0000 1.0000
39.5400 368.0000 1.0000
39.5500 353.0000 1.0000
39.5600 368.0000 1.0000
39.5700 362.0000 1.0000
39.5800 373.0000 1.0000
39.5900 359.0000 1.0000
39.6000 355.0000 1.0000
39.6100 338.0000 1.0000
39.6200 344.0000 1.0000
39.6300 350.0000 1.0000
39.6400 386.0000 1.0000
39.6500 340.0000 1.0000
39.6600 346.0000 1.0000
39.6700 342.0000 1.0000
39.6800 354.0000 1.0000
39.6900 326.0000 1.0000
39.7000 348.0000 1.0000
39.7100 324.0000 1.0000
39.7200 362.0000 1.0000
39.7300 338.0000 1.0000
39.7400 334.0000 1.0000
39.7500 336.0000 1.0000
39.7600 355.0000 1.0000
39.7700 354.0000 1.0000
39.7800 348.0000 1.0000
39.7900 344.0000 1.0000
39.8000 371.0000 1.0000
39.8100 339.0000 1.0000
39.8200 335.0000 1.0000
39.8300 321.0000 1.0000
39.8400 343.0000 1.0000
39.8500 343.0000 1.0000
39.8600 341.0000 1.0000
39.8700 366.0000 1.0000
39.8800 323.0000 1.0000
39.8900 334.0000 1.0000
39.9000 356.0000 1.0000
39.9100 337.0000 1.0000
39.9200 339.0000 1.0000
39.9300 347.0000 1.0000
39.9400 359.0000 1.0000
39.9500 330.0000 1.0000
39.9600 356.0000 1.0000
39.9700 349.0000 1.0000
39.9800 351.0000 1.0000
39.9900 321.0000 1.0000
40.0000 350.0000 1.0000
40.0100 354.0000 1.0000
40.0200 364.0000 1.0000
40.0300 335.0000 1.0000
40.0400 337.0000 1.0000
40.0500 363.0000 1.0000
40.0600 333.0000 1.0000
40.0700 337.0000 1.0000
40.0800 342.0000 1.0000
40.0900 320.0000 1.0000
40.1000 333.0000 1.0000
40.1100 362.0000 1.0000
40.1200 330.0000 1.0000
40.1300 372.0000 1.0000
40.1400 329.0000 1.0000
40.1500 336.0000 1.0000
40.1600 347.0000 1.0000
40.1700 388.0000 1.0000
40.1800 351.0000 1.0000
40.1900 347.0000 1.0000
40.2000 357.0000 1.0000
40.2100 352.0000 1.0000
40.2200 339.0000 1.0000
40.2300 357.0000 1.0000
40.2400 324.0000 1.0000
40.2500 324.0000 1.0000
40.2600 352.0000 1.0000
40.2700 372.0000 1.0000
40.2800 355.0000 1.0000
40.2900 331.0000 1.0000
40.3000 361.0000 1.0000
40.3100 352.0000 1.0000
40.3200 307.0000 1.0000
40.3300 333.0000 1.0000
40.3400 324.0000 1.0000
40.3500 312.0000 1.0000
40.3600 330.0000 1.0000
40.3700 326.0000 1.0000
40.3800 337.0000 1.0000
40.3900 338.0000 1.0000
40.4000 343.0000 1.0000
40.4100 335.0000 1.0000
40.4200 380.0000 1.0000
40.4300 339.0000 1.0000
40.4400 328.0000 1.0000
40.4500 313.0000 1.0000
40.4600 341.0000 1.0000
40.4700 351.0000 1.0000
40.4800 341.0000 1.0000
40.4900 350.0000 1.0000
40.5000 319.0000 1.0000
40.5100 308.0000 1.0000
40.5200 308.0000 1.0000
40.5300 341.0000 1.0000
40.5400 347.0000 1.0000
40.5500 334.0000 1.0000
40.5600 366.0000 1.0000
40.5700 324.0000 1.0000
40.5800 335.0000 1.0000
40.5900 350.0000 1.0000
40.6000 360.0000 1.0000
40.6100 355.0000 1.0000
40.6200 334.0000 1.0000
40.6300 332.0000 1.0000
40.6400 310.0000 1.0000
40.6500 330.0000 1.0000
40.6600 339.0000 1.0000
40.6700 345.0000 1.0000
40.6800 361.0000 1.0000
40.6900 363.0000 1.0000
40.7000 358.0000 1.0000
40.7100 327.0000 1.0000
40.7200 387.0000 1.0000
40.7300 345.0000 1.0000
40.7400 383.0000 1.0000
40.7500 360.0000 1.0000
40.7600 340.0000 1.0000
40.7700 362.0000 1.0000
40.7800 354.0000 1.0000
40.7900 336.0000 1.0000
40.8000 321.0000 1.0000
40.8100 358.0000 1.0000
40.8200 350.0000 1.0000
40.8300 329.0000 1.0000
40.8400 350.0000 1.0000
40.8500 373.0000 1.0000
40.8600 332.0000 1.0000
40.8700 383.0000 1.0000
40.8800 365.0000 1.0000
40.8900 343.0000 1.0000
40.9000 326.0000 1.0000
40.9100 342.0000 1.0000
40.9200 355.0000 1.0000
40.9300 346.0000 1.0000
40.9400 333.0000 1.0000
40.9500 353.0000 1.0000
40.9600 340.0000 1.0000
40.9700 360.0000 1.0000
40.9800 344.0000 1.0000
40.9900 341.0000 1.0000
41.0000 353.0000 1.0000
41.0100 336.0000 1.0000
41.0200 379.0000 1.0000
41.0300 344.0000 1.0000
41.0400 328.0000 1.0000
41.0500 343.0000 1.0000
41.0600 339.0000 1.0000
41.0700 345.0000 1.0000
41.0800 318.0000 1.0000
41.0900 350.0000 1.0000
41.1000 342.0000 1.0000
41.1100 336.0000 1.0000
41.1200 342.0000 1.0000
41.1300 357.0000 1.0000
41.1400 329.0000 1.0000
41.1500 346.0000 1.0000
41.1600 362.0000 1.0000
41.1700 346.0000 1.0000
41.1800 357.0000 1.0000
41.1900 350.0000 1.0000
41.2000 327.0000 1.0000
41.2100 326.0000 1.0000
41.2200 305.0000 1.0000
41.2300 334.0000 1.0000
41.2400 316.0000 1.0000
41.2500 340.0000 1.0000
41.2600 343.0000 1.0000
41.2700 323.0000 1.0000
41.2800 358.0000 1.0000
41.2900 327.0000 1.0000
41.3000 333.0000 1.0000
41.3100 318.0000 1.0000
41.3200 332.0000 1.0000
41.3300 319.0000 1.0000
41.3400 342.0000 1.0000
41.3500 324.0000 1.0000
41.3600 350.0000 1.0000
41.3700 339.0000 1.0000
41.3800 306.0000 1.0000
41.3900 315.0000 1.0000
41.4000 368.0000 1.0000
41.4100 341.0000 1.0000
41.4200 320.0000 1.0000
41.4300 340.0000 1.0000
41.4400 359.0000 1.0000
41.4500 344.0000 1.0000
41.4600 316.0000 1.0000
41.4700 323.0000 1.0000
41.4800 338.0000 1.0000
41.4900 339.0000 1.0000
41.5000 346.0000 1.0000
41.5100 314.0000 1.0000
41.5200 319.0000 1.0000
41.5300 321.0000 1.0000
41.5400 338.0000 1.0000
41.5500 342.0000 1.0000
41.5600 307.0000 1.0000
41.5700 317.0000 1.0000
41.5800 331.0000 1.0000
41.5900 314.0000 1.0000
41.6000 335.0000 1.0000
41.6100 344.0000 1.0000
41.6200 343.0000 1.0000
41.6300 330.0000 1.0000
41.6400 323.0000 1.0000
41.6500 323.0000 1.0000
41.6600 327.0000 1.0000
41.6700 327.0000 1.0000
41.6800 335.0000 1.0000
41.6900 330.0000 1.0000
41.7000 336.0000 1.0000
41.7100 319.0000 1.0000
41.7200 333.0000 1.0000
41.7300 326.0000 1.0000
41.7400 307.0000 1.0000
41.7500 330.0000 1.0000
41.7600 344.0000 1.0000
41.7700 353.0000 1.0000
41.7800 338.0000 1.0000
41.7900 352.0000 1.0000
41.8000 338.0000 1.0000
41.8100 315.0000 1.0000
41.8200 319.0000 1.0000
41.8300 327.0000 1.0000
41.8400 351.0000 1.0000
41.8500 322.0000 1.0000
41.8600 332.0000 1.0000
41.8700 351.0000 1.0000
41.8800 332.0000 1.0000
41.8900 343.0000 1.0000
41.9000 373.0000 1.0000
41.9100 325.0000 1.0000
41.9200 344.0000 1.0000
41.9300 326.0000 1.0000
41.9400 337.0000 1.0000
41.9500 336.0000 1.0000
41.9600 341.0000 1.0000
41.9700 305.0000 1.0000
41.9800 336.0000 1.0000
41.9900 340.0000 1.0000
42.0000 342.0000 1.0000
42.0100 315.0000 1.0000
42.0200 347.0000 1.0000
42.0300 348.0000 1.0000
42.0400 342.0000 1.0000
42.0500 344.0000 1.0000
42.0600 327.0000 1.0000
42.0700 344.0000 1.0000
42.0800 328.0000 1.0000
42.0900 313.0000 1.0000
42.1000 322.0000 1.0000
42.1100 323.0000 1.0000
42.1200 343.0000 1.0000
42.1300 368.0000 1.0000
42.1400 314.0000 1.0000
42.1500 313.0000 1.0000
42.1600 324.0000 1.0000
42.1700 354.0000 1.0000
42.1800 354.0000 1.0000
42.1900 319.0000 1.0000
42.2000 299.0000 1.0000
42.2100 340.0000 1.0000
42.2200 333.0000 1.0000
42.2300 363.0000 1.0000
42.2400 342.0000 1.0000
42.2500 327.0000 1.0000
42.2600 355.0000 1.0000
42.2700 356.0000 1.0000
42.2800 366.0000 1.0000
42.2900 375.0000 1.0000
42.3000 361.0000 1.0000
42.3100 354.0000 1.0000
42.3200 329.0000 1.0000
42.3300 357.0000 1.0000
42.3400 345.0000 1.0000
42.3500 358.0000 1.0000
42.3600 367.0000 1.0000
42.3700 377.0000 1.0000
42.3800 345.0000 1.0000
42.3900 378.0000 1.0000
42.4000 365.0000 1.0000
42.4100 356.0000 1.0000
42.4200 353.0000 1.0000
42.4300 363.0000 1.0000
42.4400 374.0000 1.0000
42.4500 353.0000 1.0000
42.4600 366.0000 1.0000
42.4700 361.0000 1.0000
42.4800 375.0000 1.0000
42.4900 352.0000 1.0000
42.5000 391.0000 1.0000
42.5100 370.0000 1.0000
42.5200 348.0000 1.0000
42.5300 341.0000 1.0000
42.5400 374.0000 1.0000
42.5500 322.0000 1.0000
42.5600 343.0000 1.0000
42.5700 349.0000 1.0000
42.5800 335.0000 1.0000
42.5900 351.0000 1.0000
42.6000 340.0000 1.0000
42.6100 322.0000 1.0000
42.6200 348.0000 1.0000
42.6300 337.0000 1.0000
42.6400 302.0000 1.0000
42.6500 326.0000 1.0000
42.6600 304.0000 1.0000
42.6700 333.0000 1.0000
42.6800 345.0000 1.0000
42.6900 361.0000 1.0000
42.7000 322.0000 1.0000
42.7100 331.0000 1.0000
42.7200 334.0000 1.0000
42.7300 300.0000 1.0000
42.7400 325.0000 1.0000
42.7500 352.0000 1.0000
42.7600 343.0000 1.0000
42.7700 331.0000 1.0000
42.7800 312.0000 1.0000
42.7900 300.0000 1.0000
42.8000 311.0000 1.0000
42.8100 340.0000 1.0000
42.8200 322.0000 1.0000
42.8300 339.0000 1.0000
42.8400 304.0000 1.0000
42.8500 319.0000 1.0000
42.8600 315.0000 1.0000
42.8700 346.0000 1.0000
42.8800 322.0000 1.0000
42.8900 384.0000 1.0000
42.9000 314.0000 1.0000
42.9100 316.0000 1.0000
42.9200 318.0000 1.0000
42.9300 322.0000 1.0000
42.9400 349.0000 1.0000
42.9500 328.0000 1.0000
42.9600 326.0000 1.0000
42.9700 320.0000 1.0000
42.9800 328.0000 1.0000
42.9900 291.0000 1.0000
43.0000 325.0000 1.0000
43.0100 330.0000 1.0000
43.0200 336.0000 1.0000
43.0300 341.0000 1.0000
43.0400 326.0000 1.0000
43.0500 314.0000 1.0000
43.0600 302.0000 1.0000
43.0700 305.0000 1.0000
43.0800 309.0000 1.0000
43.0900 304.0000 1.0000
43.1000 327.0000 1.0000
43.1100 308.0000 1.0000
43.1200 336.0000 1.0000
43.1300 344.0000 1.0000
43.1400 314.0000 1.0000
43.1500 323.0000 1.0000
43.1600 341.0000 1.0000
43.1700 344.0000 1.0000
43.1800 303.0000 1.0000
43.1900 319.0000 1.0000
43.2000 320.0000 1.0000
43.2100 301.0000 1.0000
43.2200 326.0000 1.0000
43.2300 312.0000 1.0000
43.2400 324.0000 1.0000
43.2500 321.0000 1.0000
43.2600 329.0000 1.0000
43.2700 340.0000 1.0000
43.2800 336.0000 1.0000
43.2900 318.0000 1.0000
43.3000 320.0000 1.0000
43.3100 320.0000 1.0000
43.3200 296.0000 1.0000
43.3300 339.0000 1.0000
43.3400 312.0000 1.0000
43.3500 309.0000 1.0000
43.3600 319.0000 1.0000
43.3700 314.0000 1.0000
43.3800 313.0000 1.0000
43.3900 309.0000 1.0000
43.4000 336.0000 1.0000
43.4100 317.0000 1.0000
43.4200 312.0000 1.0000
43.4300 284.0000 1.0000
43.4400 311.0000 1.0000
43.4500 316.0000 1.0000
43.4600 316.0000 1.0000
43.4700 331.0000 1.0000
43.4800 323.0000 1.0000
43.4900 346.0000 1.0000
43.5000 318.0000 1.0000
43.5100 327.0000 1.0000
43.5200 340.0000 1.0000
43.5300 317.0000 1.0000
43.5400 320.0000 1.0000
43.5500 362.0000 1.0000
43.5600 335.0000 1.0000
43.5700 305.0000 1.0000
43.5800 307.0000 1.0000
43.5900 330.0000 1.0000
43.6000 343.0000 1.0000
43.6100 343.0000 1.0000
43.6200 339.0000 1.0000
43.6300 317.0000 1.0000
43.6400 304.0000 1.0000
43.6500 312.0000 1.0000
43.6600 330.0000 1.0000
43.6700 303.0000 1.0000
43.6800 340.0000 1.0000
43.6900 308.0000 1.0000
43.7000 350.0000 1.0000
43.7100 329.0000 1.0000
43.7200 311.0000 1.0000
43.7300 296.0000 1.0000
43.7400 343.0000 1.0000
43.7500 341.0000 1.0000
43.7600 313.0000 1.0000
43.7700 310.0000 1.0000
43.7800 300.0000 1.0000
43.7900 309.0000 1.0000
43.8000 327.0000 1.0000
43.8100 296.0000 1.0000
43.8200 319.0000 1.0000
43.8300 313.0000 1.0000
43.8400 304.0000 1.0000
43.8500 324.0000 1.0000
43.8600 308.0000 1.0000
43.8700 331.0000 1.0000
43.8800 320.0000 1.0000
43.8900 337.0000 1.0000
43.9000 344.0000 1.0000
43.9100 339.0000 1.0000
43.9200 328.0000 1.0000
43.9300 298.0000 1.0000
43.9400 321.0000 1.0000
43.9500 320.0000 1.0000
43.9600 334.0000 1.0000
43.9700 336.0000 1.0000
43.9800 307.0000 1.0000
43.9900 333.0000 1.0000
44.0000 334.0000 1.0000
44.0100 327.0000 1.0000
44.0200 333.0000 1.0000
44.0300 331.0000 1.0000
44.0400 308.0000 1.0000
44.0500 286.0000 1.0000
44.0600 317.0000 1.0000
44.0700 326.0000 1.0000
44.0800 349.0000 1.0000
44.0900 309.0000 1.0000
44.1000 315.0000 1.0000
44.1100 328.0000 1.0000
44.1200 337.0000 1.0000
44.1300 291.0000 1.0000
44.1400 300.0000 1.0000
44.1500 341.0000 1.0000
44.1600 344.0000 1.0000
44.1700 322.0000 1.0000
44.1800 308.0000 1.0000
44.1900 310.0000 1.0000
44.2000 322.0000 1.0000
44.2100 329.0000 1.0000
44.2200 300.0000 1.0000
44.2300 320.0000 1.0000
44.2400 318.0000 1.0000
44.2500 333.0000 1.0000
44.2600 321.0000 1.0000
44.2700 351.0000 1.0000
44.2800 323.0000 1.0000
44.2900 297.0000 1.0000
44.3000 310.0000 1.0000
44.3100 303.0000 1.0000
44.3200 310.0000 1.0000
44.3300 314.0000 1.0000
44.3400 319.0000 1.0000
44.3500 308.0000 1.0000
44.3600 280.0000 1.0000
44.3700 309.0000 1.0000
44.3800 321.0000 1.0000
44.3900 291.0000 1.0000
44.4000 310.0000 1.0000
44.4100 311.0000 1.0000
44.4200 304.0000 1.0000
44.4300 305.0000 1.0000
44.4400 309.0000 1.0000
44.4500 313.0000 1.0000
44.4600 315.0000 1.0000
44.4700 316.0000 1.0000
44.4800 303.0000 1.0000
44.4900 312.0000 1.0000
44.5000 306.0000 1.0000
44.5100 298.0000 1.0000
44.5200 319.0000 1.0000
44.5300 322.0000 1.0000
44.5400 305.0000 1.0000
44.5500 307.0000 1.0000
44.5600 341.0000 1.0000
44.5700 320.0000 1.0000
44.5800 330.0000 1.0000
44.5900 292.0000 1.0000
44.6000 311.0000 1.0000
44.6100 303.0000 1.0000
44.6200 292.0000 1.0000
44.6300 277.0000 1.0000
44.6400 321.0000 1.0000
44.6500 299.0000 1.0000
44.6600 312.0000 1.0000
44.6700 303.0000 1.0000
44.6800 294.0000 1.0000
44.6900 316.0000 1.0000
44.7000 309.0000 1.0000
44.7100 309.0000 1.0000
44.7200 313.0000 1.0000
44.7300 319.0000 1.0000
44.7400 302.0000 1.0000
44.7500 296.0000 1.0000
44.7600 298.0000 1.0000
44.7700 289.0000 1.0000
44.7800 325.0000 1.0000
44.7900 327.0000 1.0000
44.8000 301.0000 1.0000
44.8100 300.0000 1.0000
44.8200 298.0000 1.0000
44.8300 306.0000 1.0000
44.8400 304.0000 1.0000
44.8500 325.0000 1.0000
44.8600 312.0000 1.0000
44.8700 319.0000 1.0000
44.8800 307.0000 1.0000
44.8900 269.0000 1.0000
44.9000 301.0000 1.0000
44.9100 312.0000 1.0000
44.9200 298.0000 1.0000
44.9300 310.0000 1.0000
44.9400 315.0000 1.0000
44.9500 313.0000 1.0000
44.9600 334.0000 1.0000
44.9700 313.0000 1.0000
44.9800 281.0000 1.0000
44.9900 309.0000 1.0000
45.0000 322.0000 1.0000
45.0100 321.0000 1.0000
45.0200 308.0000 1.0000
45.0300 331.0000 1.0000
45.0400 304.0000 1.0000
45.0500 326.0000 1.0000
45.0600 321.0000 1.0000
45.0700 310.0000 1.0000
45.0800 286.0000 1.0000
45.0900 324.0000 1.0000
45.1000 302.0000 1.0000
45.1100 300.0000 1.0000
45.1200 311.0000 1.0000
45.1300 313.0000 1.0000
45.1400 296.0000 1.0000
45.1500 328.0000 1.0000
45.1600 323.0000 1.0000
45.1700 296.0000 1.0000
45.1800 306.0000 1.0000
45.1900 299.0000 1.0000
45.2000 292.0000 1.0000
45.2100 324.0000 1.0000
45.2200 321.0000 1.0000
45.2300 312.0000 1.0000
45.2400 309.0000 1.0000
45.2500 307.0000 1.0000
45.2600 334.0000 1.0000
45.2700 296.0000 1.0000
45.2800 300.0000 1.0000
45.2900 303.0000 1.0000
45.3000 293.0000 1.0000
45.3100 308.0000 1.0000
45.3200 337.0000 1.0000
45.3300 346.0000 1.0000
45.3400 291.0000 1.0000
45.3500 319.0000 1.0000
45.3600 294.0000 1.0000
45.3700 289.0000 1.0000
45.3800 299.0000 1.0000
45.3900 280.0000 1.0000
45.4000 307.0000 1.0000
45.4100 292.0000 1.0000
45.4200 303.0000 1.0000
45.4300 319.0000 1.0000
45.4400 314.0000 1.0000
45.4500 301.0000 1.0000
45.4600 295.0000 1.0000
45.4700 305.0000 1.0000
45.4800 300.0000 1.0000
45.4900 304.0000 1.0000
45.5000 280.0000 1.0000
45.5100 303.0000 1.0000
45.5200 310.0000 1.0000
45.5300 295.0000 1.0000
45.5400 338.0000 1.0000
45.5500 281.0000 1.0000
45.5600 312.0000 1.0000
45.5700 328.0000 1.0000
45.5800 319.0000 1.0000
45.5900 296.0000 1.0000
45.6000 315.0000 1.0000
45.6100 317.0000 1.0000
45.6200 285.0000 1.0000
45.6300 290.0000 1.0000
45.6400 251.0000 1.0000
45.6500 261.0000 1.0000
45.6600 281.0000 1.0000
45.6700 283.0000 1.0000
45.6800 276.0000 1.0000
45.6900 288.0000 1.0000
45.7000 267.0000 1.0000
45.7100 287.0000 1.0000
45.7200 278.0000 1.0000
45.7300 312.0000 1.0000
45.7400 290.0000 1.0000
45.7500 282.0000 1.0000
45.7600 326.0000 1.0000
45.7700 316.0000 1.0000
45.7800 312.0000 1.0000
45.7900 319.0000 1.0000
45.8000 330.0000 1.0000
45.8100 303.0000 1.0000
45.8200 301.0000 1.0000
45.8300 321.0000 1.0000
45.8400 329.0000 1.0000
45.8500 326.0000 1.0000
45.8600 304.0000 1.0000
45.8700 319.0000 1.0000
45.8800 311.0000 1.0000
45.8900 292.0000 1.0000
45.9000 293.0000 1.0000
45.9100 306.0000 1.0000
45.9200 285.0000 1.0000
45.9300 283.0000 1.0000
45.9400 301.0000 1.0000
45.9500 307.0000 1.0000
45.9600 279.0000 1.0000
45.9700 321.0000 1.0000
45.9800 306.0000 1.0000
45.9900 298.0000 1.0000
46.0000 287.0000 1.0000
46.0100 303.0000 1.0000
46.0200 290.0000 1.0000
46.0300 311.0000 1.0000
46.0400 296.0000 1.0000
46.0500 278.0000 1.0000
46.0600 296.0000 1.0000
46.0700 287.0000 1.0000
46.0800 293.0000 1.0000
46.0900 308.0000 1.0000
46.1000 306.0000 1.0000
46.1100 330.0000 1.0000
46.1200 303.0000 1.0000
46.1300 277.0000 1.0000
46.1400 317.0000 1.0000
46.1500 326.0000 1.0000
46.1600 309.0000 1.0000
46.1700 327.0000 1.0000
46.1800 324.0000 1.0000
46.1900 286.0000 1.0000
46.2000 305.0000 1.0000
46.2100 300.0000 1.0000
46.2200 307.0000 1.0000
46.2300 352.0000 1.0000
46.2400 291.0000 1.0000
46.2500 311.0000 1.0000
46.2600 295.0000 1.0000
46.2700 312.0000 1.0000
46.2800 276.0000 1.0000
46.2900 310.0000 1.0000
46.3000 295.0000 1.0000
46.3100 332.0000 1.0000
46.3200 316.0000 1.0000
46.3300 298.0000 1.0000
46.3400 321.0000 1.0000
46.3500 303.0000 1.0000
46.3600 295.0000 1.0000
46.3700 294.0000 1.0000
46.3800 286.0000 1.0000
46.3900 306.0000 1.0000
46.4000 314.0000 1.0000
46.4100 318.0000 1.0000
46.4200 265.0000 1.0000
46.4300 293.0000 1.0000
46.4400 274.0000 1.0000
46.4500 288.0000 1.0000
46.4600 291.0000 1.0000
46.4700 304.0000 1.0000
46.4800 291.0000 1.0000
46.4900 275.0000 1.0000
46.5000 323.0000 1.0000
46.5100 293.0000 1.0000
46.5200 295.0000 1.0000
46.5300 316.0000 1.0000
46.5400 320.0000 1.0000
46.5500 293.0000 1.0000
46.5600 309.0000 1.0000
46.5700 299.0000 1.0000
46.5800 326.0000 1.0000
46.5900 311.0000 1.0000
46.6000 312.0000 1.0000
46.6100 279.0000 1.0000
46.6200 275.0000 1.0000
46.6300 287.0000 1.0000
46.6400 312.0000 1.0000
46.6500 316.0000 1.0000
46.6600 299.0000 1.0000
46.6700 320.0000 1.0000
46.6800 279.0000 1.0000
46.6900 283.0000 1.0000
46.7000 306.0000 1.0000
46.7100 304.0000 1.0000
46.7200 294.0000 1.0000
46.7300 319.0000 1.0000
46.7400 298.0000 1.0000
46.7500 286.0000 1.0000
46.7600 299.0000 1.0000
46.7700 312.0000 1.0000
46.7800 305.0000 1.0000
46.7900 290.0000 1.0000
46.8000 292.0000 1.0000
46.8100 308.0000 1.0000
46.8200 279.0000 1.0000
46.8300 323.0000 1.0000
46.8400 251.0000 1.0000
46.8500 273.0000 1.0000
46.8600 259.0000 1.0000
46.8700 293.0000 1.0000
46.8800 276.0000 1.0000
46.8900 294.0000 1.0000
46.9000 302.0000 1.0000
46.9100 301.0000 1.0000
46.9200 312.0000 1.0000
46.9300 285.0000 1.0000
46.9400 287.0000 1.0000
46.9500 285.0000 1.0000
46.9600 297.0000 1.0000
46.9700 289.0000 1.0000
46.9800 289.0000 1.0000
46.9900 288.0000 1.0000
47.0000 271.0000 1.0000
47.0100 306.0000 1.0000
47.0200 297.0000 1.0000
47.0300 280.0000 1.0000
47.0400 308.0000 1.0000
47.0500 297.0000 1.0000
47.0600 291.0000 1.0000
47.0700 273.0000 1.0000
47.0800 283.0000 1.0000
47.0900 282.0000 1.0000
47.1000 281.0000 1.0000
47.1100 310.0000 1.0000
47.1200 294.0000 1.0000
47.1300 314.0000 1.0000
47.1400 292.0000 1.0000
47.1500 329.0000 1.0000
47.1600 281.0000 1.0000
47.1700 305.0000 1.0000
47.1800 287.0000 1.0000
47.1900 266.0000 1.0000
47.2000 254.0000 1.0000
47.2100 284.0000 1.0000
47.2200 286.0000 1.0000
47.2300 299.0000 1.0000
47.2400 287.0000 1.0000
47.2500 293.0000 1.0000
47.2600 286.0000 1.0000
47.2700 289.0000 1.0000
47.2800 263.0000 1.0000
47.2900 279.0000 1.0000
47.3000 287.0000 1.0000
47.3100 286.0000 1.0000
47.3200 304.0000 1.0000
47.3300 249.0000 1.0000
47.3400 272.0000 1.0000
47.3500 283.0000 1.0000
47.3600 276.0000 1.0000
47.3700 299.0000 1.0000
47.3800 287.0000 1.0000
47.3900 282.0000 1.0000
47.4000 283.0000 1.0000
47.4100 278.0000 1.0000
47.4200 269.0000 1.0000
47.4300 260.0000 1.0000
47.4400 269.0000 1.0000
47.4500 296.0000 1.0000
47.4600 299.0000 1.0000
47.4700 284.0000 1.0000
47.4800 297.0000 1.0000
47.4900 280.0000 1.0000
47.5000 275.0000 1.0000
47.5100 262.0000 1.0000
47.5200 272.0000 1.0000
47.5300 296.0000 1.0000
47.5400 287.0000 1.0000
47.5500 261.0000 1.0000
47.5600 302.0000 1.0000
47.5700 267.0000 1.0000
47.5800 272.0000 1.0000
47.5900 296.0000 1.0000
47.6000 296.0000 1.0000
47.6100 293.0000 1.0000
47.6200 287.0000 1.0000
47.6300 264.0000 1.0000
47.6400 278.0000 1.0000
47.6500 314.0000 1.0000
47.6600 269.0000 1.0000
47.6700 271.0000 1.0000
47.6800 246.0000 1.0000
47.6900 261.0000 1.0000
47.7000 294.0000 1.0000
47.7100 284.0000 1.0000
47.7200 282.0000 1.0000
47.7300 312.0000 1.0000
47.7400 288.0000 1.0000
47.7500 304.0000 1.0000
47.7600 317.0000 1.0000
47.7700 316.0000 1.0000
47.7800 278.0000 1.0000
47.7900 283.0000 1.0000
47.8000 306.0000 1.0000
47.8100 273.0000 1.0000
47.8200 269.0000 1.0000
47.8300 292.0000 1.0000
47.8400 282.0000 1.0000
47.8500 284.0000 1.0000
47.8600 301.0000 1.0000
47.8700 299.0000 1.0000
47.8800 273.0000 1.0000
47.8900 254.0000 1.0000
47.9000 274.0000 1.0000
47.9100 309.0000 1.0000
47.9200 300.0000 1.0000
47.9300 285.0000 1.0000
47.9400 292.0000 1.0000
47.9500 318.0000 1.0000
47.9600 293.0000 1.0000
47.9700 276.0000 1.0000
47.9800 275.0000 1.0000
47.9900 283.0000 1.0000
48.0000 278.0000 1.0000
48.0100 306.0000 1.0000
48.0200 275.0000 1.0000
48.0300 294.0000 1.0000
48.0400 294.0000 1.0000
48.0500 279.0000 1.0000
48.0600 302.0000 1.0000
48.0700 300.0000 1.0000
48.0800 263.0000 1.0000
48.0900 283.0000 1.0000
48.1000 268.0000 1.0000
48.1100 274.0000 1.0000
48.1200 276.0000 1.0000
48.1300 285.0000 1.0000
48.1400 283.0000 1.0000
48.1500 277.0000 1.0000
48.1600 295.0000 1.0000
48.1700 284.0000 1.0000
48.1800 283.0000 1.0000
48.1900 285.0000 1.0000
48.2000 306.0000 1.0000
48.2100 306.0000 1.0000
48.2200 284.0000 1.0000
48.2300 293.0000 1.0000
48.2400 293.0000 1.0000
48.2500 280.0000 1.0000
48.2600 301.0000 1.0000
48.2700 285.0000 1.0000
48.2800 291.0000 1.0000
48.2900 293.0000 1.0000
48.3000 284.0000 1.0000
48.3100 277.0000 1.0000
48.3200 294.0000 1.0000
48.3300 279.0000 1.0000
48.3400 293.0000 1.0000
48.3500 272.0000 1.0000
48.3600 284.0000 1.0000
48.3700 291.0000 1.0000
48.3800 306.0000 1.0000
48.3900 270.0000 1.0000
48.4000 310.0000 1.0000
48.4100 271.0000 1.0000
48.4200 279.0000 1.0000
48.4300 299.0000 1.0000
48.4400 276.0000 1.0000
48.4500 293.0000 1.0000
48.4600 253.0000 1.0000
48.4700 281.0000 1.0000
48.4800 291.0000 1.0000
48.4900 286.0000 1.0000
48.5000 304.0000 1.0000
48.5100 266.0000 1.0000
48.5200 272.0000 1.0000
48.5300 281.0000 1.0000
48.5400 281.0000 1.0000
48.5500 266.0000 1.0000
48.5600 269.0000 1.0000
48.5700 283.0000 1.0000
48.5800 297.0000 1.0000
48.5900 280.0000 1.0000
48.6000 280.0000 1.0000
48.6100 281.0000 1.0000
48.6200 276.0000 1.0000
48.6300 310.0000 1.0000
48.6400 298.0000 1.0000
48.6500 287.0000 1.0000
48.6600 292.0000 1.0000
48.6700 275.0000 1.0000
48.6800 281.0000 1.0000
48.6900 264.0000 1.0000
48.7000 285.0000 1.0000
48.7100 277.0000 1.0000
48.7200 287.0000 1.0000
48.7300 269.0000 1.0000
48.7400 274.0000 1.0000
48.7500 267.0000 1.0000
48.7600 273.0000 1.0000
48.7700 281.0000 1.0000
48.7800 296.0000 1.0000
48.7900 295.0000 1.0000
48.8000 290.0000 1.0000
48.8100 273.0000 1.0000
48.8200 297.0000 1.0000
48.8300 293.0000 1.0000
48.8400 277.0000 1.0000
48.8500 265.0000 1.0000
48.8600 279.0000 1.0000
48.8700 292.0000 1.0000
48.8800 251.0000 1.0000
48.8900 248.0000 1.0000
48.9000 262.0000 1.0000
48.9100 278.0000 1.0000
48.9200 265.0000 1.0000
48.9300 260.0000 1.0000
48.9400 282.0000 1.0000
48.9500 279.0000 1.0000
48.9600 268.0000 1.0000
48.9700 286.0000 1.0000
48.9800 282.0000 1.0000
48.9900 291.0000 1.0000
49.0000 292.0000 1.0000
49.0100 290.0000 1.0000
49.0200 247.0000 1.0000
49.0300 277.0000 1.0000
49.0400 281.0000 1.0000
49.0500 294.0000 1.0000
49.0600 295.0000 1.0000
49.0700 287.0000 1.0000
49.0800 293.0000 1.0000
49.0900 283.0000 1.0000
49.1000 296.0000 1.0000
49.1100 269.0000 1.0000
49.1200 259.0000 1.0000
49.1300 258.0000 1.0000
49.1400 275.0000 1.0000
49.1500 296.0000 1.0000
49.1600 265.0000 1.0000
49.1700 290.0000 1.0000
49.1800 281.0000 1.0000
49.1900 279.0000 1.0000
49.2000 269.0000 1.0000
49.2100 321.0000 1.0000
49.2200 276.0000 1.0000
49.2300 271.0000 1.0000
49.2400 298.0000 1.0000
49.2500 308.0000 1.0000
49.2600 281.0000 1.0000
49.2700 299.0000 1.0000
49.2800 311.0000 1.0000
49.2900 295.0000 1.0000
49.3000 292.0000 1.0000
49.3100 272.0000 1.0000
49.3200 302.0000 1.0000
49.3300 295.0000 1.0000
49.3400 261.0000 1.0000
49.3500 309.0000 1.0000
49.3600 300.0000 1.0000
49.3700 301.0000 1.0000
49.3800 284.0000 1.0000
49.3900 309.0000 1.0000
49.4000 284.0000 1.0000
49.4100 261.0000 1.0000
49.4200 305.0000 1.0000
49.4300 277.0000 1.0000
49.4400 294.0000 1.0000
49.4500 314.0000 1.0000
49.4600 301.0000 1.0000
49.4700 287.0000 1.0000
49.4800 325.0000 1.0000
49.4900 278.0000 1.0000
49.5000 298.0000 1.0000
49.5100 292.0000 1.0000
49.5200 283.0000 1.0000
49.5300 291.0000 1.0000
49.5400 307.0000 1.0000
49.5500 304.0000 1.0000
49.5600 292.0000 1.0000
49.5700 291.0000 1.0000
49.5800 282.0000 1.0000
49.5900 308.0000 1.0000
49.6000 286.0000 1.0000
49.6100 306.0000 1.0000
49.6200 292.0000 1.0000
49.6300 300.0000 1.0000
49.6400 272.0000 1.0000
49.6500 295.0000 1.0000
49.6600 289.0000 1.0000
49.6700 299.0000 1.0000
49.6800 296.0000 1.0000
49.6900 302.0000 1.0000
49.7000 317.0000 1.0000
49.7100 277.0000 1.0000
49.7200 284.0000 1.0000
49.7300 289.0000 1.0000
49.7400 283.0000 1.0000
49.7500 308.0000 1.0000
49.7600 267.0000 1.0000
49.7700 277.0000 1.0000
49.7800 237.0000 1.0000
49.7900 289.0000 1.0000
49.8000 300.0000 1.0000
49.8100 300.0000 1.0000
49.8200 304.0000 1.0000
49.8300 284.0000 1.0000
49.8400 306.0000 1.0000
49.8500 290.0000 1.0000
49.8600 290.0000 1.0000
49.8700 268.0000 1.0000
49.8800 283.0000 1.0000
49.8900 276.0000 1.0000
49.9000 278.0000 1.0000
49.9100 268.0000 1.0000
49.9200 273.0000 1.0000
49.9300 275.0000 1.0000
49.9400 283.0000 1.0000
49.9500 272.0000 1.0000
49.9600 264.0000 1.0000
49.9700 276.0000 1.0000
49.9800 302.0000 1.0000
49.9900 249.0000 1.0000
50.0000 274.0000 1.0000
50.0100 271.0000 1.0000
50.0200 296.0000 1.0000
50.0300 275.0000 1.0000
50.0400 283.0000 1.0000
50.0500 286.0000 1.0000
50.0600 290.0000 1.0000
50.0700 277.0000 1.0000
50.0800 276.0000 1.0000
50.0900 287.0000 1.0000
50.1000 262.0000 1.0000
50.1100 280.0000 1.0000
50.1200 273.0000 1.0000
50.1300 286.0000 1.0000
50.1400 283.0000 1.0000
50.1500 275.0000 1.0000
50.1600 290.0000 1.0000
50.1700 316.0000 1.0000
50.1800 300.0000 1.0000
50.1900 315.0000 1.0000
50.2000 292.0000 1.0000
50.2100 297.0000 1.0000
50.2200 265.0000 1.0000
50.2300 278.0000 1.0000
50.2400 289.0000 1.0000
50.2500 278.0000 1.0000
50.2600 308.0000 1.0000
50.2700 298.0000 1.0000
50.2800 293.0000 1.0000
50.2900 311.0000 1.0000
50.3000 289.0000 1.0000
50.3100 289.0000 1.0000
50.3200 291.0000 1.0000
50.3300 290.0000 1.0000
50.3400 282.0000 1.0000
50.3500 283.0000 1.0000
50.3600 298.0000 1.0000
50.3700 293.0000 1.0000
50.3800 276.0000 1.0000
50.3900 308.0000 1.0000
50.4000 269.0000 1.0000
50.4100 258.0000 1.0000
50.4200 291.0000 1.0000
50.4300 294.0000 1.0000
50.4400 278.0000 1.0000
50.4500 271.0000 1.0000
50.4600 287.0000 1.0000
50.4700 265.0000 1.0000
50.4800 267.0000 1.0000
50.4900 304.0000 1.0000
50.5000 299.0000 1.0000
50.5100 310.0000 1.0000
50.5200 307.0000 1.0000
50.5300 301.0000 1.0000
50.5400 290.0000 1.0000
50.5500 318.0000 1.0000
50.5600 320.0000 1.0000
50.5700 301.0000 1.0000
50.5800 278.0000 1.0000
50.5900 269.0000 1.0000
50.6000 298.0000 1.0000
50.6100 307.0000 1.0000
50.6200 295.0000 1.0000
50.6300 310.0000 1.0000
50.6400 303.0000 1.0000
50.6500 288.0000 1.0000
50.6600 308.0000 1.0000
50.6700 275.0000 1.0000
50.6800 272.0000 1.0000
50.6900 313.0000 1.0000
50.7000 289.0000 1.0000
50.7100 287.0000 1.0000
50.7200 273.0000 1.0000
50.7300 315.0000 1.0000
50.7400 284.0000 1.0000
50.7500 276.0000 1.0000
50.7600 304.0000 1.0000
50.7700 306.0000 1.0000
50.7800 309.0000 1.0000
50.7900 287.0000 1.0000
50.8000 291.0000 1.0000
50.8100 315.0000 1.0000
50.8200 283.0000 1.0000
50.8300 288.0000 1.0000
50.8400 279.0000 1.0000
50.8500 310.0000 1.0000
50.8600 290.0000 1.0000
50.8700 300.0000 1.0000
50.8800 318.0000 1.0000
50.8900 302.0000 1.0000
50.9000 294.0000 1.0000
50.9100 299.0000 1.0000
50.9200 314.0000 1.0000
50.9300 307.0000 1.0000
50.9400 299.0000 1.0000
50.9500 288.0000 1.0000
50.9600 320.0000 1.0000
50.9700 324.0000 1.0000
50.9800 312.0000 1.0000
50.9900 313.0000 1.0000
51.0000 321.0000 1.0000
51.0100 315.0000 1.0000
51.0200 287.0000 1.0000
51.0300 345.0000 1.0000
51.0400 317.0000 1.0000
51.0500 303.0000 1.0000
51.0600 344.0000 1.0000
51.0700 345.0000 1.0000
51.0800 346.0000 1.0000
51.0900 324.0000 1.0000
51.1000 356.0000 1.0000
51.1100 364.0000 1.0000
51.1200 364.0000 1.0000
51.1300 349.0000 1.0000
51.1400 386.0000 1.0000
51.1500 393.0000 1.0000
51.1600 415.0000 1.0000
51.1700 404.0000 1.0000
51.1800 420.0000 1.0000
51.1900 419.0000 1.0000
51.2000 436.0000 1.0000
51.2100 449.0000 1.0000
51.2200 437.0000 1.0000
51.2300 468.0000 1.0000
51.2400 497.0000 1.0000
51.2500 491.0000 1.0000
51.2600 534.0000 1.0000
51.2700 552.0000 1.0000
51.2800 628.0000 1.0000
51.2900 587.0000 1.0000
51.3000 604.0000 1.0000
51.3100 732.0000 1.0000
51.3200 750.0000 1.0000
51.3300 756.0000 1.0000
51.3400 873.0000 1.0000
51.3500 917.0000 1.0000
51.3600 1014.0000 1.0000
51.3700 1092.0000 1.0000
51.3800 1146.0000 1.0000
51.3900 1237.0000 1.0000
51.4000 1398.0000 1.0000
51.4100 1509.0000 1.0000
51.4200 1593.0000 1.0000
51.4300 1699.0000 1.0000
51.4400 1797.0000 1.0000
51.4500 1887.0000 1.0000
51.4600 1977.0000 1.0000
51.4700 2053.0000 1.0000
51.4800 2025.0000 1.0000
51.4900 2071.0000 1.0000
51.5000 2016.0000 1.0000
51.5100 1987.0000 1.0000
51.5200 1949.0000 1.0000
51.5300 1903.0000 1.0000
51.5400 1835.0000 1.0000
51.5500 1705.0000 1.0000
51.5600 1688.0000 1.0000
51.5700 1637.0000 1.0000
51.5800 1639.0000 1.0000
51.5900 1554.0000 1.0000
51.6000 1560.0000 1.0000
51.6100 1489.0000 1.0000
51.6200 1453.0000 1.0000
51.6300 1379.0000 1.0000
51.6400 1285.0000 1.0000
51.6500 1208.0000 1.0000
51.6600 1204.0000 1.0000
51.6700 1047.0000 1.0000
51.6800 1060.0000 1.0000
51.6900 930.0000 1.0000
51.7000 865.0000 1.0000
51.7100 783.0000 1.0000
51.7200 768.0000 1.0000
51.7300 722.0000 1.0000
51.7400 705.0000 1.0000
51.7500 656.0000 1.0000
51.7600 585.0000 1.0000
51.7700 571.0000 1.0000
51.7800 537.0000 1.0000
51.7900 491.0000 1.0000
51.8000 540.0000 1.0000
51.8100 460.0000 1.0000
51.8200 482.0000 1.0000
51.8300 474.0000 1.0000
51.8400 427.0000 1.0000
51.8500 450.0000 1.0000
51.8600 439.0000 1.0000
51.8700 423.0000 1.0000
51.8800 411.0000 1.0000
51.8900 362.0000 1.0000
51.9000 397.0000 1.0000
51.9100 387.0000 1.0000
51.9200 375.0000 1.0000
51.9300 371.0000 1.0000
51.9400 350.0000 1.0000
51.9500 351.0000 1.0000
51.9600 354.0000 1.0000
51.9700 357.0000 1.0000
51.9800 326.0000 1.0000
51.9900 360.0000 1.0000
52.0000 333.0000 1.0000
52.0100 340.0000 1.0000
52.0200 318.0000 1.0000
52.0300 338.0000 1.0000
52.0400 309.0000 1.0000
52.0500 303.0000 1.0000
52.0600 315.0000 1.0000
52.0700 324.0000 1.0000
52.0800 298.0000 1.0000
52.0900 326.0000 1.0000
52.1000 313.0000 1.0000
52.1100 307.0000 1.0000
52.1200 298.0000 1.0000
52.1300 303.0000 1.0000
52.1400 325.0000 1.0000
52.1500 281.0000 1.0000
52.1600 295.0000 1.0000
52.1700 286.0000 1.0000
52.1800 308.0000 1.0000
52.1900 281.0000 1.0000
52.2000 281.0000 1.0000
52.2100 262.0000 1.0000
52.2200 299.0000 1.0000
52.2300 291.0000 1.0000
52.2400 315.0000 1.0000
52.2500 303.0000 1.0000
52.2600 282.0000 1.0000
52.2700 280.0000 1.0000
52.2800 266.0000 1.0000
52.2900 293.0000 1.0000
52.3000 302.0000 1.0000
52.3100 314.0000 1.0000
52.3200 291.0000 1.0000
52.3300 292.0000 1.0000
52.3400 289.0000 1.0000
52.3500 298.0000 1.0000
52.3600 277.0000 1.0000
52.3700 271.0000 1.0000
52.3800 281.0000 1.0000
52.3900 306.0000 1.0000
52.4000 297.0000 1.0000
52.4100 270.0000 1.0000
52.4200 271.0000 1.0000
52.4300 282.0000 1.0000
52.4400 286.0000 1.0000
52.4500 260.0000 1.0000
52.4600 265.0000 1.0000
52.4700 290.0000 1.0000
52.4800 280.0000 1.0000
52.4900 288.0000 1.0000
52.5000 275.0000 1.0000
52.5100 280.0000 1.0000
52.5200 286.0000 1.0000
52.5300 271.0000 1.0000
52.5400 280.0000 1.0000
52.5500 271.0000 1.0000
52.5600 309.0000 1.0000
52.5700 303.0000 1.0000
52.5800 276.0000 1.0000
52.5900 275.0000 1.0000
52.6000 281.0000 1.0000
52.6100 320.0000 1.0000
52.6200 268.0000 1.0000
52.6300 294.0000 1.0000
52.6400 297.0000 1.0000
52.6500 282.0000 1.0000
52.6600 302.0000 1.0000
52.6700 299.0000 1.0000
52.6800 298.0000 1.0000
52.6900 262.0000 1.0000
52.7000 266.0000 1.0000
52.7100 297.0000 1.0000
52.7200 264.0000 1.0000
52.7300 281.0000 1.0000
52.7400 286.0000 1.0000
52.7500 289.0000 1.0000
52.7600 272.0000 1.0000
52.7700 284.0000 1.0000
52.7800 259.0000 1.0000
52.7900 279.0000 1.0000
52.8000 302.0000 1.0000
52.8100 255.0000 1.0000
52.8200 274.0000 1.0000
52.8300 274.0000 1.0000
52.8400 273.0000 1.0000
52.8500 261.0000 1.0000
52.8600 248.0000 1.0000
52.8700 270.0000 1.0000
52.8800 248.0000 1.0000
52.8900 260.0000 1.0000
52.9000 290.0000 1.0000
52.9100 271.0000 1.0000
52.9200 275.0000 1.0000
52.9300 250.0000 1.0000
52.9400 274.0000 1.0000
52.9500 278.0000 1.0000
52.9600 261.0000 1.0000
52.9700 274.0000 1.0000
52.9800 297.0000 1.0000
52.9900 270.0000 1.0000
53.0000 282.0000 1.0000
53.0100 282.0000 1.0000
53.0200 259.0000 1.0000
53.0300 276.0000 1.0000
53.0400 271.0000 1.0000
53.0500 258.0000 1.0000
53.0600 235.0000 1.0000
53.0700 263.0000 1.0000
53.0800 276.0000 1.0000
53.0900 257.0000 1.0000
53.1000 301.0000 1.0000
53.1100 251.0000 1.0000
53.1200 282.0000 1.0000
53.1300 282.0000 1.0000
53.1400 279.0000 1.0000
53.1500 266.0000 1.0000
53.1600 225.0000 1.0000
53.1700 271.0000 1.0000
53.1800 282.0000 1.0000
53.1900 277.0000 1.0000
53.2000 304.0000 1.0000
53.2100 288.0000 1.0000
53.2200 273.0000 1.0000
53.2300 282.0000 1.0000
53.2400 278.0000 1.0000
53.2500 275.0000 1.0000
53.2600 257.0000 1.0000
53.2700 281.0000 1.0000
53.2800 295.0000 1.0000
53.2900 275.0000 1.0000
53.3000 270.0000 1.0000
53.3100 283.0000 1.0000
53.3200 280.0000 1.0000
53.3300 265.0000 1.0000
53.3400 264.0000 1.0000
53.3500 274.0000 1.0000
53.3600 261.0000 1.0000
53.3700 264.0000 1.0000
53.3800 262.0000 1.0000
53.3900 271.0000 1.0000
53.4000 252.0000 1.0000
53.4100 295.0000 1.0000
53.4200 283.0000 1.0000
53.4300 285.0000 1.0000
53.4400 290.0000 1.0000
53.4500 266.0000 1.0000
53.4600 286.0000 1.0000
53.4700 271.0000 1.0000
53.4800 261.0000 1.0000
53.4900 259.0000 1.0000
53.5000 268.0000 1.0000
53.5100 264.0000 1.0000
53.5200 259.0000 1.0000
53.5300 281.0000 1.0000
53.5400 255.0000 1.0000
53.5500 261.0000 1.0000
53.5600 278.0000 1.0000
53.5700 256.0000 1.0000
53.5800 288.0000 1.0000
53.5900 266.0000 1.0000
53.6000 279.0000 1.0000
53.6100 276.0000 1.0000
53.6200 240.0000 1.0000
53.6300 285.0000 1.0000
53.6400 269.0000 1.0000
53.6500 268.0000 1.0000
53.6600 246.0000 1.0000
53.6700 273.0000 1.0000
53.6800 261.0000 1.0000
53.6900 277.0000 1.0000
53.7000 251.0000 1.0000
53.7100 253.0000 1.0000
53.7200 275.0000 1.0000
53.7300 252.0000 1.0000
53.7400 270.0000 1.0000
53.7500 285.0000 1.0000
53.7600 279.0000 1.0000
53.7700 277.0000 1.0000
53.7800 285.0000 1.0000
53.7900 265.0000 1.0000
53.8000 269.0000 1.0000
53.8100 291.0000 1.0000
53.8200 286.0000 1.0000
53.8300 281.0000 1.0000
53.8400 262.0000 1.0000
53.8500 283.0000 1.0000
53.8600 277.0000 1.0000
53.8700 261.0000 1.0000
53.8800 283.0000 1.0000
53.8900 278.0000 1.0000
53.9000 294.0000 1.0000
53.9100 296.0000 1.0000
53.9200 296.0000 1.0000
53.9300 293.0000 1.0000
53.9400 296.0000 1.0000
53.9500 315.0000 1.0000
53.9600 295.0000 1.0000
53.9700 304.0000 1.0000
53.9800 298.0000 1.0000
53.9900 308.0000 1.0000
54.0000 290.0000 1.0000
54.0100 275.0000 1.0000
54.0200 286.0000 1.0000
54.0300 260.0000 1.0000
54.0400 301.0000 1.0000
54.0500 300.0000 1.0000
54.0600 302.0000 1.0000
54.0700 291.0000 1.0000
54.0800 287.0000 1.0000
54.0900 289.0000 1.0000
54.1000 291.0000 1.0000
54.1100 284.0000 1.0000
54.1200 296.0000 1.0000
54.1300 296.0000 1.0000
54.1400 274.0000 1.0000
54.1500 296.0000 1.0000
54.1600 284.0000 1.0000
54.1700 278.0000 1.0000
54.1800 316.0000 1.0000
54.1900 326.0000 1.0000
54.2000 334.0000 1.0000
54.2100 302.0000 1.0000
54.2200 303.0000 1.0000
54.2300 331.0000 1.0000
54.2400 289.0000 1.0000
54.2500 317.0000 1.0000
54.2600 291.0000 1.0000
54.2700 297.0000 1.0000
54.2800 302.0000 1.0000
54.2900 317.0000 1.0000
54.3000 324.0000 1.0000
54.3100 318.0000 1.0000
54.3200 306.0000 1.0000
54.3300 323.0000 1.0000
54.3400 315.0000 1.0000
54.3500 333.0000 1.0000
54.3600 345.0000 1.0000
54.3700 336.0000 1.0000
54.3800 322.0000 1.0000
54.3900 343.0000 1.0000
54.4000 366.0000 1.0000
54.4100 358.0000 1.0000
54.4200 370.0000 1.0000
54.4300 364.0000 1.0000
54.4400 393.0000 1.0000
54.4500 424.0000 1.0000
54.4600 412.0000 1.0000
54.4700 404.0000 1.0000
54.4800 410.0000 1.0000
54.4900 384.0000 1.0000
54.5000 392.0000 1.0000
54.5100 404.0000 1.0000
54.5200 383.0000 1.0000
54.5300 368.0000 1.0000
54.5400 397.0000 1.0000
54.5500 419.0000 1.0000
54.5600 410.0000 1.0000
54.5700 399.0000 1.0000
54.5800 400.0000 1.0000
54.5900 384.0000 1.0000
54.6000 379.0000 1.0000
54.6100 401.0000 1.0000
54.6200 362.0000 1.0000
54.6300 358.0000 1.0000
54.6400 407.0000 1.0000
54.6500 397.0000 1.0000
54.6600 373.0000 1.0000
54.6700 357.0000 1.0000
54.6800 357.0000 1.0000
54.6900 375.0000 1.0000
54.7000 378.0000 1.0000
54.7100 368.0000 1.0000
54.7200 362.0000 1.0000
54.7300 334.0000 1.0000
54.7400 330.0000 1.0000
54.7500 349.0000 1.0000
54.7600 332.0000 1.0000
54.7700 304.0000 1.0000
54.7800 308.0000 1.0000
54.7900 314.0000 1.0000
54.8000 308.0000 1.0000
54.8100 304.0000 1.0000
54.8200 287.0000 1.0000
54.8300 316.0000 1.0000
54.8400 298.0000 1.0000
54.8500 304.0000 1.0000
54.8600 282.0000 1.0000
54.8700 284.0000 1.0000
54.8800 284.0000 1.0000
54.8900 276.0000 1.0000
54.9000 294.0000 1.0000
54.9100 296.0000 1.0000
54.9200 288.0000 1.0000
54.9300 302.0000 1.0000
54.9400 303.0000 1.0000
54.9500 269.0000 1.0000
54.9600 285.0000 1.0000
54.9700 292.0000 1.0000
54.9800 262.0000 1.0000
54.9900 289.0000 1.0000
55.0000 294.0000 1.0000
55.0100 283.0000 1.0000
55.0200 285.0000 1.0000
55.0300 289.0000 1.0000
55.0400 298.0000 1.0000
55.0500 270.0000 1.0000
55.0600 265.0000 1.0000
55.0700 261.0000 1.0000
55.0800 270.0000 1.0000
55.0900 256.0000 1.0000
55.1000 270.0000 1.0000
55.1100 269.0000 1.0000
55.1200 285.0000 1.0000
55.1300 285.0000 1.0000
55.1400 251.0000 1.0000
55.1500 275.0000 1.0000
55.1600 285.0000 1.0000
55.1700 255.0000 1.0000
55.1800 244.0000 1.0000
55.1900 263.0000 1.0000
55.2000 252.0000 1.0000
55.2100 254.0000 1.0000
55.2200 277.0000 1.0000
55.2300 287.0000 1.0000
55.2400 248.0000 1.0000
55.2500 252.0000 1.0000
55.2600 272.0000 1.0000
55.2700 274.0000 1.0000
55.2800 281.0000 1.0000
55.2900 269.0000 1.0000
55.3000 262.0000 1.0000
55.3100 233.0000 1.0000
55.3200 295.0000 1.0000
55.3300 294.0000 1.0000
55.3400 262.0000 1.0000
55.3500 264.0000 1.0000
55.3600 263.0000 1.0000
55.3700 288.0000 1.0000
55.3800 248.0000 1.0000
55.3900 243.0000 1.0000
55.4000 268.0000 1.0000
55.4100 268.0000 1.0000
55.4200 258.0000 1.0000
55.4300 263.0000 1.0000
55.4400 287.0000 1.0000
55.4500 259.0000 1.0000
55.4600 249.0000 1.0000
55.4700 256.0000 1.0000
55.4800 245.0000 1.0000
55.4900 244.0000 1.0000
55.5000 247.0000 1.0000
55.5100 256.0000 1.0000
55.5200 268.0000 1.0000
55.5300 269.0000 1.0000
55.5400 265.0000 1.0000
55.5500 267.0000 1.0000
55.5600 255.0000 1.0000
55.5700 270.0000 1.0000
55.5800 271.0000 1.0000
55.5900 274.0000 1.0000
55.6000 267.0000 1.0000
55.6100 300.0000 1.0000
55.6200 242.0000 1.0000
55.6300 279.0000 1.0000
55.6400 261.0000 1.0000
55.6500 256.0000 1.0000
55.6600 239.0000 1.0000
55.6700 280.0000 1.0000
55.6800 281.0000 1.0000
55.6900 267.0000 1.0000
55.7000 264.0000 1.0000
55.7100 270.0000 1.0000
55.7200 263.0000 1.0000
55.7300 266.0000 1.0000
55.7400 280.0000 1.0000
55.7500 269.0000 1.0000
55.7600 271.0000 1.0000
55.7700 275.0000 1.0000
55.7800 275.0000 1.0000
55.7900 270.0000 1.0000
55.8000 271.0000 1.0000
55.8100 242.0000 1.0000
55.8200 268.0000 1.0000
55.8300 238.0000 1.0000
55.8400 278.0000 1.0000
55.8500 296.0000 1.0000
55.8600 279.0000 1.0000
55.8700 255.0000 1.0000
55.8800 246.0000 1.0000
55.8900 262.0000 1.0000
55.9000 259.0000 1.0000
55.9100 233.0000 1.0000
55.9200 226.0000 1.0000
55.9300 261.0000 1.0000
55.9400 259.0000 1.0000
55.9500 249.0000 1.0000
55.9600 266.0000 1.0000
55.9700 264.0000 1.0000
55.9800 268.0000 1.0000
55.9900 278.0000 1.0000
56.0000 272.0000 1.0000
56.0100 295.0000 1.0000
56.0200 234.0000 1.0000
56.0300 221.0000 1.0000
56.0400 241.0000 1.0000
56.0500 264.0000 1.0000
56.0600 268.0000 1.0000
56.0700 236.0000 1.0000
56.0800 260.0000 1.0000
56.0900 247.0000 1.0000
56.1000 272.0000 1.0000
56.1100 264.0000 1.0000
56.1200 267.0000 1.0000
56.1300 275.0000 1.0000
56.1400 270.0000 1.0000
56.1500 270.0000 1.0000
56.1600 252.0000 1.0000
56.1700 266.0000 1.0000
56.1800 256.0000 1.0000
56.1900 259.0000 1.0000
56.2000 255.0000 1.0000
56.2100 287.0000 1.0000
56.2200 259.0000 1.0000
56.2300 243.0000 1.0000
56.2400 271.0000 1.0000
56.2500 271.0000 1.0000
56.2600 267.0000 1.0000
56.2700 239.0000 1.0000
56.2800 281.0000 1.0000
56.2900 259.0000 1.0000
56.3000 266.0000 1.0000
56.3100 273.0000 1.0000
56.3200 260.0000 1.0000
56.3300 285.0000 1.0000
56.3400 263.0000 1.0000
56.3500 267.0000 1.0000
56.3600 277.0000 1.0000
56.3700 236.0000 1.0000
56.3800 251.0000 1.0000
56.3900 271.0000 1.0000
56.4000 268.0000 1.0000
56.4100 266.0000 1.0000
56.4200 273.0000 1.0000
56.4300 286.0000 1.0000
56.4400 230.0000 1.0000
56.4500 244.0000 1.0000
56.4600 235.0000 1.0000
56.4700 262.0000 1.0000
56.4800 242.0000 1.0000
56.4900 279.0000 1.0000
56.5000 268.0000 1.0000
56.5100 268.0000 1.0000
56.5200 268.0000 1.0000
56.5300 267.0000 1.0000
56.5400 261.0000 1.0000
56.5500 256.0000 1.0000
56.5600 265.0000 1.0000
56.5700 266.0000 1.0000
56.5800 252.0000 1.0000
56.5900 259.0000 1.0000
56.6000 250.0000 1.0000
56.6100 232.0000 1.0000
56.6200 245.0000 1.0000
56.6300 248.0000 1.0000
56.6400 239.0000 1.0000
56.6500 275.0000 1.0000
56.6600 259.0000 1.0000
56.6700 249.0000 1.0000
56.6800 279.0000 1.0000
56.6900 269.0000 1.0000
56.7000 265.0000 1.0000
56.7100 287.0000 1.0000
56.7200 257.0000 1.0000
56.7300 279.0000 1.0000
56.7400 270.0000 1.0000
56.7500 268.0000 1.0000
56.7600 260.0000 1.0000
56.7700 272.0000 1.0000
56.7800 275.0000 1.0000
56.7900 254.0000 1.0000
56.8000 240.0000 1.0000
56.8100 272.0000 1.0000
56.8200 264.0000 1.0000
56.8300 266.0000 1.0000
56.8400 253.0000 1.0000
56.8500 269.0000 1.0000
56.8600 265.0000 1.0000
56.8700 242.0000 1.0000
56.8800 285.0000 1.0000
56.8900 264.0000 1.0000
56.9000 281.0000 1.0000
56.9100 262.0000 1.0000
56.9200 282.0000 1.0000
56.9300 262.0000 1.0000
56.9400 246.0000 1.0000
56.9500 251.0000 1.0000
56.9600 267.0000 1.0000
56.9700 238.0000 1.0000
56.9800 232.0000 1.0000
56.9900 244.0000 1.0000
57.0000 243.0000 1.0000
57.0100 309.0000 1.0000
57.0200 293.0000 1.0000
57.0300 255.0000 1.0000
57.0400 238.0000 1.0000
57.0500 254.0000 1.0000
57.0600 255.0000 1.0000
57.0700 260.0000 1.0000
57.0800 266.0000 1.0000
57.0900 266.0000 1.0000
57.1000 239.0000 1.0000
57.1100 256.0000 1.0000
57.1200 273.0000 1.0000
57.1300 249.0000 1.0000
57.1400 250.0000 1.0000
57.1500 248.0000 1.0000
57.1600 269.0000 1.0000
57.1700 275.0000 1.0000
57.1800 263.0000 1.0000
57.1900 265.0000 1.0000
57.2000 256.0000 1.0000
57.2100 250.0000 1.0000
57.2200 259.0000 1.0000
57.2300 250.0000 1.0000
57.2400 275.0000 1.0000
57.2500 258.0000 1.0000
57.2600 240.0000 1.0000
57.2700 272.0000 1.0000
57.2800 267.0000 1.0000
57.2900 278.0000 1.0000
57.3000 292.0000 1.0000
57.3100 259.0000 1.0000
57.3200 256.0000 1.0000
57.3300 280.0000 1.0000
57.3400 245.0000 1.0000
57.3500 262.0000 1.0000
57.3600 260.0000 1.0000
57.3700 259.0000 1.0000
57.3800 232.0000 1.0000
57.3900 265.0000 1.0000
57.4000 278.0000 1.0000
57.4100 272.0000 1.0000
57.4200 268.0000 1.0000
57.4300 259.0000 1.0000
57.4400 274.0000 1.0000
57.4500 246.0000 1.0000
57.4600 263.0000 1.0000
57.4700 257.0000 1.0000
57.4800 294.0000 1.0000
57.4900 272.0000 1.0000
57.5000 281.0000 1.0000
57.5100 253.0000 1.0000
57.5200 259.0000 1.0000
57.5300 243.0000 1.0000
57.5400 277.0000 1.0000
57.5500 269.0000 1.0000
57.5600 268.0000 1.0000
57.5700 281.0000 1.0000
57.5800 266.0000 1.0000
57.5900 260.0000 1.0000
57.6000 250.0000 1.0000
57.6100 249.0000 1.0000
57.6200 304.0000 1.0000
57.6300 255.0000 1.0000
57.6400 259.0000 1.0000
57.6500 277.0000 1.0000
57.6600 267.0000 1.0000
57.6700 263.0000 1.0000
57.6800 241.0000 1.0000
57.6900 293.0000 1.0000
57.7000 241.0000 1.0000
57.7100 259.0000 1.0000
57.7200 279.0000 1.0000
57.7300 242.0000 1.0000
57.7400 250.0000 1.0000
57.7500 269.0000 1.0000
57.7600 271.0000 1.0000
57.7700 255.0000 1.0000
57.7800 259.0000 1.0000
57.7900 271.0000 1.0000
57.8000 242.0000 1.0000
57.8100 227.0000 1.0000
57.8200 242.0000 1.0000
57.8300 259.0000 1.0000
57.8400 276.0000 1.0000
57.8500 245.0000 1.0000
57.8600 251.0000 1.0000
57.8700 266.0000 1.0000
57.8800 249.0000 1.0000
57.8900 265.0000 1.0000
57.9000 266.0000 1.0000
57.9100 246.0000 1.0000
57.9200 254.0000 1.0000
57.9300 254.0000 1.0000
57.9400 217.0000 1.0000
57.9500 253.0000 1.0000
57.9600 246.0000 1.0000
57.9700 247.0000 1.0000
57.9800 247.0000 1.0000
57.9900 253.0000 1.0000
58.0000 279.0000 1.0000
58.0100 280.0000 1.0000
58.0200 282.0000 1.0000
58.0300 251.0000 1.0000
58.0400 248.0000 1.0000
58.0500 258.0000 1.0000
58.0600 263.0000 1.0000
58.0700 261.0000 1.0000
58.0800 264.0000 1.0000
58.0900 255.0000 1.0000
58.1000 258.0000 1.0000
58.1100 270.0000 1.0000
58.1200 282.0000 1.0000
58.1300 245.0000 1.0000
58.1400 237.0000 1.0000
58.1500 283.0000 1.0000
58.1600 262.0000 1.0000
58.1700 238.0000 1.0000
58.1800 217.0000 1.0000
58.1900 238.0000 1.0000
58.2000 277.0000 1.0000
58.2100 265.0000 1.0000
58.2200 258.0000 1.0000
58.2300 273.0000 1.0000
58.2400 262.0000 1.0000
58.2500 229.0000 1.0000
58.2600 249.0000 1.0000
58.2700 263.0000 1.0000
58.2800 278.0000 1.0000
58.2900 260.0000 1.0000
58.3000 248.0000 1.0000
58.3100 254.0000 1.0000
58.3200 249.0000 1.0000
58.3300 283.0000 1.0000
58.3400 255.0000 1.0000
58.3500 254.0000 1.0000
58.3600 257.0000 1.0000
58.3700 228.0000 1.0000
58.3800 254.0000 1.0000
58.3900 246.0000 1.0000
58.4000 247.0000 1.0000
58.4100 288.0000 1.0000
58.4200 245.0000 1.0000
58.4300 240.0000 1.0000
58.4400 255.0000 1.0000
58.4500 267.0000 1.0000
58.4600 245.0000 1.0000
58.4700 265.0000 1.0000
58.4800 249.0000 1.0000
58.4900 254.0000 1.0000
58.5000 264.0000 1.0000
58.5100 279.0000 1.0000
58.5200 237.0000 1.0000
58.5300 249.0000 1.0000
58.5400 216.0000 1.0000
58.5500 267.0000 1.0000
58.5600 263.0000 1.0000
58.5700 261.0000 1.0000
58.5800 231.0000 1.0000
58.5900 246.0000 1.0000
58.6000 262.0000 1.0000
58.6100 260.0000 1.0000
58.6200 279.0000 1.0000
58.6300 265.0000 1.0000
58.6400 281.0000 1.0000
58.6500 288.0000 1.0000
58.6600 271.0000 1.0000
58.6700 259.0000 1.0000
58.6800 232.0000 1.0000
58.6900 227.0000 1.0000
58.7000 257.0000 1.0000
58.7100 253.0000 1.0000
58.7200 250.0000 1.0000
58.7300 270.0000 1.0000
58.7400 260.0000 1.0000
58.7500 270.0000 1.0000
58.7600 265.0000 1.0000
58.7700 265.0000 1.0000
58.7800 261.0000 1.0000
58.7900 260.0000 1.0000
58.8000 256.0000 1.0000
58.8100 254.0000 1.0000
58.8200 249.0000 1.0000
58.8300 237.0000 1.0000
58.8400 250.0000 1.0000
58.8500 250.0000 1.0000
58.8600 254.0000 1.0000
58.8700 235.0000 1.0000
58.8800 236.0000 1.0000
58.8900 258.0000 1.0000
58.9000 251.0000 1.0000
58.9100 259.0000 1.0000
58.9200 252.0000 1.0000
58.9300 236.0000 1.0000
58.9400 248.0000 1.0000
58.9500 276.0000 1.0000
58.9600 255.0000 1.0000
58.9700 264.0000 1.0000
58.9800 267.0000 1.0000
58.9900 271.0000 1.0000
59.0000 262.0000 1.0000
59.0100 235.0000 1.0000
59.0200 249.0000 1.0000
59.0300 249.0000 1.0000
59.0400 259.0000 1.0000
59.0500 267.0000 1.0000
59.0600 255.0000 1.0000
59.0700 266.0000 1.0000
59.0800 271.0000 1.0000
59.0900 272.0000 1.0000
59.1000 278.0000 1.0000
59.1100 254.0000 1.0000
59.1200 233.0000 1.0000
59.1300 248.0000 1.0000
59.1400 248.0000 1.0000
59.1500 263.0000 1.0000
59.1600 241.0000 1.0000
59.1700 272.0000 1.0000
59.1800 264.0000 1.0000
59.1900 255.0000 1.0000
59.2000 252.0000 1.0000
59.2100 250.0000 1.0000
59.2200 262.0000 1.0000
59.2300 253.0000 1.0000
59.2400 265.0000 1.0000
59.2500 279.0000 1.0000
59.2600 267.0000 1.0000
59.2700 251.0000 1.0000
59.2800 239.0000 1.0000
59.2900 262.0000 1.0000
59.3000 237.0000 1.0000
59.3100 246.0000 1.0000
59.3200 226.0000 1.0000
59.3300 259.0000 1.0000
59.3400 254.0000 1.0000
59.3500 283.0000 1.0000
59.3600 258.0000 1.0000
59.3700 276.0000 1.0000
59.3800 260.0000 1.0000
59.3900 264.0000 1.0000
59.4000 251.0000 1.0000
59.4100 245.0000 1.0000
59.4200 236.0000 1.0000
59.4300 241.0000 1.0000
59.4400 252.0000 1.0000
59.4500 248.0000 1.0000
59.4600 248.0000 1.0000
59.4700 273.0000 1.0000
59.4800 260.0000 1.0000
59.4900 267.0000 1.0000
59.5000 257.0000 1.0000
59.5100 255.0000 1.0000
59.5200 274.0000 1.0000
59.5300 255.0000 1.0000
59.5400 254.0000 1.0000
59.5500 260.0000 1.0000
59.5600 283.0000 1.0000
59.5700 241.0000 1.0000
59.5800 249.0000 1.0000
59.5900 239.0000 1.0000
59.6000 222.0000 1.0000
59.6100 246.0000 1.0000
59.6200 274.0000 1.0000
59.6300 259.0000 1.0000
59.6400 236.0000 1.0000
59.6500 253.0000 1.0000
59.6600 258.0000 1.0000
59.6700 258.0000 1.0000
59.6800 251.0000 1.0000
59.6900 274.0000 1.0000
59.7000 236.0000 1.0000
59.7100 259.0000 1.0000
59.7200 233.0000 1.0000
59.7300 262.0000 1.0000
59.7400 246.0000 1.0000
59.7500 243.0000 1.0000
59.7600 251.0000 1.0000
59.7700 247.0000 1.0000
59.7800 247.0000 1.0000
59.7900 252.0000 1.0000
59.8000 281.0000 1.0000
59.8100 256.0000 1.0000
59.8200 251.0000 1.0000
59.8300 236.0000 1.0000
59.8400 250.0000 1.0000
59.8500 271.0000 1.0000
59.8600 263.0000 1.0000
59.8700 234.0000 1.0000
59.8800 254.0000 1.0000
59.8900 260.0000 1.0000
59.9000 231.0000 1.0000
59.9100 247.0000 1.0000
59.9200 241.0000 1.0000
59.9300 256.0000 1.0000
59.9400 256.0000 1.0000
59.9500 233.0000 1.0000
59.9600 284.0000 1.0000
59.9700 262.0000 1.0000
59.9800 248.0000 1.0000
59.9900 264.0000 1.0000
60.0000 261.0000 1.0000
60.0100 245.0000 1.0000
60.0200 263.0000 1.0000
60.0300 270.0000 1.0000
60.0400 237.0000 1.0000
60.0500 256.0000 1.0000
60.0600 261.0000 1.0000
60.0700 256.0000 1.0000
60.0800 272.0000 1.0000
60.0900 267.0000 1.0000
60.1000 229.0000 1.0000
60.1100 249.0000 1.0000
60.1200 230.0000 1.0000
60.1300 258.0000 1.0000
60.1400 272.0000 1.0000
60.1500 275.0000 1.0000
60.1600 260.0000 1.0000
60.1700 245.0000 1.0000
60.1800 262.0000 1.0000
60.1900 256.0000 1.0000
60.2000 253.0000 1.0000
60.2100 243.0000 1.0000
60.2200 273.0000 1.0000
60.2300 268.0000 1.0000
60.2400 271.0000 1.0000
60.2500 277.0000 1.0000
60.2600 279.0000 1.0000
60.2700 243.0000 1.0000
60.2800 276.0000 1.0000
60.2900 251.0000 1.0000
60.3000 242.0000 1.0000
60.3100 276.0000 1.0000
60.3200 249.0000 1.0000
60.3300 238.0000 1.0000
60.3400 252.0000 1.0000
60.3500 267.0000 1.0000
60.3600 255.0000 1.0000
60.3700 275.0000 1.0000
60.3800 268.0000 1.0000
60.3900 243.0000 1.0000
60.4000 239.0000 1.0000
60.4100 268.0000 1.0000
60.4200 266.0000 1.0000
60.4300 256.0000 1.0000
60.4400 270.0000 1.0000
60.4500 286.0000 1.0000
60.4600 265.0000 1.0000
60.4700 274.0000 1.0000
60.4800 244.0000 1.0000
60.4900 243.0000 1.0000
60.5000 247.0000 1.0000
60.5100 264.0000 1.0000
60.5200 296.0000 1.0000
60.5300 246.0000 1.0000
60.5400 246.0000 1.0000
60.5500 228.0000 1.0000
60.5600 264.0000 1.0000
60.5700 270.0000 1.0000
60.5800 275.0000 1.0000
60.5900 271.0000 1.0000
60.6000 249.0000 1.0000
60.6100 267.0000 1.0000
60.6200 263.0000 1.0000
60.6300 258.0000 1.0000
60.6400 269.0000 1.0000
60.6500 261.0000 1.0000
60.6600 278.0000 1.0000
60.6700 276.0000 1.0000
60.6800 273.0000 1.0000
60.6900 245.0000 1.0000
60.7000 251.0000 1.0000
60.7100 238.0000 1.0000
60.7200 252.0000 1.0000
60.7300 270.0000 1.0000
60.7400 264.0000 1.0000
60.7500 276.0000 1.0000
60.7600 261.0000 1.0000
60.7700 263.0000 1.0000
60.7800 267.0000 1.0000
60.7900 264.0000 1.0000
60.8000 261.0000 1.0000
60.8100 264.0000 1.0000
60.8200 246.0000 1.0000
60.8300 255.0000 1.0000
60.8400 264.0000 1.0000
60.8500 263.0000 1.0000
60.8600 242.0000 1.0000
60.8700 278.0000 1.0000
60.8800 258.0000 1.0000
60.8900 295.0000 1.0000
60.9000 259.0000 1.0000
60.9100 244.0000 1.0000
60.9200 251.0000 1.0000
60.9300 254.0000 1.0000
60.9400 257.0000 1.0000
60.9500 264.0000 1.0000
60.9600 276.0000 1.0000
60.9700 267.0000 1.0000
60.9800 253.0000 1.0000
60.9900 255.0000 1.0000
61.0000 274.0000 1.0000
61.0100 266.0000 1.0000
61.0200 272.0000 1.0000
61.0300 277.0000 1.0000
61.0400 268.0000 1.0000
61.0500 286.0000 1.0000
61.0600 297.0000 1.0000
61.0700 262.0000 1.0000
61.0800 258.0000 1.0000
61.0900 278.0000 1.0000
61.1000 291.0000 1.0000
61.1100 297.0000 1.0000
61.1200 268.0000 1.0000
61.1300 276.0000 1.0000
61.1400 305.0000 1.0000
61.1500 289.0000 1.0000
61.1600 290.0000 1.0000
61.1700 284.0000 1.0000
61.1800 288.0000 1.0000
61.1900 311.0000 1.0000
61.2000 322.0000 1.0000
61.2100 311.0000 1.0000
61.2200 313.0000 1.0000
61.2300 318.0000 1.0000
61.2400 326.0000 1.0000
61.2500 328.0000 1.0000
61.2600 322.0000 1.0000
61.2700 299.0000 1.0000
61.2800 322.0000 1.0000
61.2900 315.0000 1.0000
61.3000 364.0000 1.0000
61.3100 344.0000 1.0000
61.3200 370.0000 1.0000
61.3300 362.0000 1.0000
61.3400 407.0000 1.0000
61.3500 416.0000 1.0000
61.3600 383.0000 1.0000
61.3700 421.0000 1.0000
61.3800 428.0000 1.0000
61.3900 446.0000 1.0000
61.4000 443.0000 1.0000
61.4100 446.0000 1.0000
61.4200 497.0000 1.0000
61.4300 442.0000 1.0000
61.4400 483.0000 1.0000
61.4500 533.0000 1.0000
61.4600 538.0000 1.0000
61.4700 493.0000 1.0000
61.4800 528.0000 1.0000
61.4900 592.0000 1.0000
61.5000 535.0000 1.0000
61.5100 537.0000 1.0000
61.5200 556.0000 1.0000
61.5300 591.0000 1.0000
61.5400 559.0000 1.0000
61.5500 533.0000 1.0000
61.5600 568.0000 1.0000
61.5700 520.0000 1.0000
61.5800 555.0000 1.0000
61.5900 547.0000 1.0000
61.6000 555.0000 1.0000
61.6100 543.0000 1.0000
61.6200 542.0000 1.0000
61.6300 542.0000 1.0000
61.6400 536.0000 1.0000
61.6500 532.0000 1.0000
61.6600 521.0000 1.0000
61.6700 476.0000 1.0000
61.6800 479.0000 1.0000
61.6900 487.0000 1.0000
61.7000 471.0000 1.0000
61.7100 495.0000 1.0000
61.7200 513.0000 1.0000
61.7300 464.0000 1.0000
61.7400 457.0000 1.0000
61.7500 453.0000 1.0000
61.7600 451.0000 1.0000
61.7700 391.0000 1.0000
61.7800 420.0000 1.0000
61.7900 420.0000 1.0000
61.8000 380.0000 1.0000
61.8100 389.0000 1.0000
61.8200 379.0000 1.0000
61.8300 385.0000 1.0000
61.8400 388.0000 1.0000
61.8500 368.0000 1.0000
61.8600 356.0000 1.0000
61.8700 347.0000 1.0000
61.8800 332.0000 1.0000
61.8900 362.0000 1.0000
61.9000 331.0000 1.0000
61.9100 289.0000 1.0000
61.9200 307.0000 1.0000
61.9300 327.0000 1.0000
61.9400 357.0000 1.0000
61.9500 307.0000 1.0000
61.9600 295.0000 1.0000
61.9700 318.0000 1.0000
61.9800 317.0000 1.0000
61.9900 314.0000 1.0000
62.0000 298.0000 1.0000
62.0100 304.0000 1.0000
62.0200 320.0000 1.0000
62.0300 279.0000 1.0000
62.0400 282.0000 1.0000
62.0500 253.0000 1.0000
62.0600 294.0000 1.0000
62.0700 287.0000 1.0000
62.0800 269.0000 1.0000
62.0900 287.0000 1.0000
62.1000 273.0000 1.0000
62.1100 298.0000 1.0000
62.1200 273.0000 1.0000
62.1300 277.0000 1.0000
62.1400 301.0000 1.0000
62.1500 274.0000 1.0000
62.1600 276.0000 1.0000
62.1700 266.0000 1.0000
62.1800 284.0000 1.0000
62.1900 280.0000 1.0000
62.2000 260.0000 1.0000
62.2100 281.0000 1.0000
62.2200 291.0000 1.0000
62.2300 286.0000 1.0000
62.2400 280.0000 1.0000
62.2500 274.0000 1.0000
62.2600 285.0000 1.0000
62.2700 313.0000 1.0000
62.2800 272.0000 1.0000
62.2900 297.0000 1.0000
62.3000 268.0000 1.0000
62.3100 261.0000 1.0000
62.3200 282.0000 1.0000
62.3300 274.0000 1.0000
62.3400 297.0000 1.0000
62.3500 298.0000 1.0000
62.3600 294.0000 1.0000
62.3700 299.0000 1.0000
62.3800 298.0000 1.0000
62.3900 295.0000 1.0000
62.4000 301.0000 1.0000
62.4100 277.0000 1.0000
62.4200 270.0000 1.0000
62.4300 264.0000 1.0000
62.4400 283.0000 1.0000
62.4500 287.0000 1.0000
62.4600 312.0000 1.0000
62.4700 295.0000 1.0000
62.4800 241.0000 1.0000
62.4900 261.0000 1.0000
62.5000 270.0000 1.0000
62.5100 293.0000 1.0000
62.5200 284.0000 1.0000
62.5300 278.0000 1.0000
62.5400 314.0000 1.0000
62.5500 277.0000 1.0000
62.5600 278.0000 1.0000
62.5700 259.0000 1.0000
62.5800 274.0000 1.0000
62.5900 256.0000 1.0000
62.6000 275.0000 1.0000
62.6100 301.0000 1.0000
62.6200 276.0000 1.0000
62.6300 277.0000 1.0000
62.6400 249.0000 1.0000
62.6500 268.0000 1.0000
62.6600 263.0000 1.0000
62.6700 273.0000 1.0000
62.6800 253.0000 1.0000
62.6900 273.0000 1.0000
62.7000 255.0000 1.0000
62.7100 240.0000 1.0000
62.7200 261.0000 1.0000
62.7300 281.0000 1.0000
62.7400 285.0000 1.0000
62.7500 271.0000 1.0000
62.7600 243.0000 1.0000
62.7700 270.0000 1.0000
62.7800 272.0000 1.0000
62.7900 246.0000 1.0000
62.8000 245.0000 1.0000
62.8100 264.0000 1.0000
62.8200 259.0000 1.0000
62.8300 235.0000 1.0000
62.8400 248.0000 1.0000
62.8500 256.0000 1.0000
62.8600 267.0000 1.0000
62.8700 271.0000 1.0000
62.8800 291.0000 1.0000
62.8900 248.0000 1.0000
62.9000 252.0000 1.0000
62.9100 255.0000 1.0000
62.9200 249.0000 1.0000
62.9300 256.0000 1.0000
62.9400 260.0000 1.0000
62.9500 266.0000 1.0000
62.9600 256.0000 1.0000
62.9700 256.0000 1.0000
62.9800 272.0000 1.0000
62.9900 287.0000 1.0000
63.0000 271.0000 1.0000
63.0100 276.0000 1.0000
63.0200 251.0000 1.0000
63.0300 259.0000 1.0000
63.0400 257.0000 1.0000
63.0500 255.0000 1.0000
63.0600 258.0000 1.0000
63.0700 264.0000 1.0000
63.0800 260.0000 1.0000
63.0900 265.0000 1.0000
63.1000 257.0000 1.0000
63.1100 240.0000 1.0000
63.1200 268.0000 1.0000
63.1300 265.0000 1.0000
63.1400 262.0000 1.0000
63.1500 260.0000 1.0000
63.1600 225.0000 1.0000
63.1700 250.0000 1.0000
63.1800 255.0000 1.0000
63.1900 251.0000 1.0000
63.2000 245.0000 1.0000
63.2100 276.0000 1.0000
63.2200 262.0000 1.0000
63.2300 239.0000 1.0000
63.2400 243.0000 1.0000
63.2500 249.0000 1.0000
63.2600 257.0000 1.0000
63.2700 279.0000 1.0000
63.2800 257.0000 1.0000
63.2900 273.0000 1.0000
63.3000 269.0000 1.0000
63.3100 246.0000 1.0000
63.3200 226.0000 1.0000
63.3300 253.0000 1.0000
63.3400 247.0000 1.0000
63.3500 269.0000 1.0000
63.3600 260.0000 1.0000
63.3700 246.0000 1.0000
63.3800 251.0000 1.0000
63.3900 255.0000 1.0000
63.4000 248.0000 1.0000
63.4100 267.0000 1.0000
63.4200 247.0000 1.0000
63.4300 241.0000 1.0000
63.4400 241.0000 1.0000
63.4500 262.0000 1.0000
63.4600 267.0000 1.0000
63.4700 253.0000 1.0000
63.4800 284.0000 1.0000
63.4900 257.0000 1.0000
63.5000 251.0000 1.0000
63.5100 241.0000 1.0000
63.5200 278.0000 1.0000
63.5300 274.0000 1.0000
63.5400 239.0000 1.0000
63.5500 241.0000 1.0000
63.5600 254.0000 1.0000
63.5700 254.0000 1.0000
63.5800 236.0000 1.0000
63.5900 278.0000 1.0000
63.6000 285.0000 1.0000
63.6100 283.0000 1.0000
63.6200 251.0000 1.0000
63.6300 264.0000 1.0000
63.6400 254.0000 1.0000
63.6500 265.0000 1.0000
63.6600 221.0000 1.0000
63.6700 264.0000 1.0000
63.6800 293.0000 1.0000
63.6900 284.0000 1.0000
63.7000 260.0000 1.0000
63.7100 264.0000 1.0000
63.7200 251.0000 1.0000
63.7300 287.0000 1.0000
63.7400 258.0000 1.0000
63.7500 259.0000 1.0000
63.7600 278.0000 1.0000
63.7700 294.0000 1.0000
63.7800 297.0000 1.0000
63.7900 296.0000 1.0000
63.8000 325.0000 1.0000
63.8100 315.0000 1.0000
63.8200 308.0000 1.0000
63.8300 301.0000 1.0000
63.8400 304.0000 1.0000
63.8500 325.0000 1.0000
63.8600 327.0000 1.0000
63.8700 369.0000 1.0000
63.8800 355.0000 1.0000
63.8900 361.0000 1.0000
63.9000 342.0000 1.0000
63.9100 391.0000 1.0000
63.9200 395.0000 1.0000
63.9300 400.0000 1.0000
63.9400 394.0000 1.0000
63.9500 404.0000 1.0000
63.9600 375.0000 1.0000
63.9700 387.0000 1.0000
63.9800 359.0000 1.0000
63.9900 402.0000 1.0000
64.0000 374.0000 1.0000
64.0100 350.0000 1.0000
64.0200 336.0000 1.0000
64.0300 346.0000 1.0000
64.0400 345.0000 1.0000
64.0500 327.0000 1.0000
64.0600 353.0000 1.0000
64.0700 373.0000 1.0000
64.0800 331.0000 1.0000
64.0900 339.0000 1.0000
64.1000 334.0000 1.0000
64.1100 335.0000 1.0000
64.1200 341.0000 1.0000
64.1300 335.0000 1.0000
64.1400 337.0000 1.0000
64.1500 359.0000 1.0000
64.1600 318.0000 1.0000
64.1700 307.0000 1.0000
64.1800 330.0000 1.0000
64.1900 303.0000 1.0000
64.2000 335.0000 1.0000
64.2100 334.0000 1.0000
64.2200 303.0000 1.0000
64.2300 303.0000 1.0000
64.2400 297.0000 1.0000
64.2500 286.0000 1.0000
64.2600 274.0000 1.0000
64.2700 299.0000 1.0000
64.2800 283.0000 1.0000
64.2900 274.0000 1.0000
64.3000 282.0000 1.0000
64.3100 271.0000 1.0000
64.3200 268.0000 1.0000
64.3300 286.0000 1.0000
64.3400 277.0000 1.0000
64.3500 278.0000 1.0000
64.3600 286.0000 1.0000
64.3700 257.0000 1.0000
64.3800 276.0000 1.0000
64.3900 254.0000 1.0000
64.4000 258.0000 1.0000
64.4100 290.0000 1.0000
64.4200 263.0000 1.0000
64.4300 280.0000 1.0000
64.4400 283.0000 1.0000
64.4500 269.0000 1.0000
64.4600 271.0000 1.0000
64.4700 254.0000 1.0000
64.4800 280.0000 1.0000
64.4900 242.0000 1.0000
64.5000 263.0000 1.0000
64.5100 277.0000 1.0000
64.5200 260.0000 1.0000
64.5300 264.0000 1.0000
64.5400 269.0000 1.0000
64.5500 278.0000 1.0000
64.5600 275.0000 1.0000
64.5700 269.0000 1.0000
64.5800 264.0000 1.0000
64.5900 288.0000 1.0000
64.6000 251.0000 1.0000
64.6100 256.0000 1.0000
64.6200 235.0000 1.0000
64.6300 269.0000 1.0000
64.6400 280.0000 1.0000
64.6500 254.0000 1.0000
64.6600 265.0000 1.0000
64.6700 251.0000 1.0000
64.6800 278.0000 1.0000
64.6900 257.0000 1.0000
64.7000 264.0000 1.0000
64.7100 263.0000 1.0000
64.7200 271.0000 1.0000
64.7300 252.0000 1.0000
64.7400 248.0000 1.0000
64.7500 281.0000 1.0000
64.7600 277.0000 1.0000
64.7700 241.0000 1.0000
64.7800 261.0000 1.0000
64.7900 262.0000 1.0000
64.8000 237.0000 1.0000
64.8100 256.0000 1.0000
64.8200 293.0000 1.0000
64.8300 284.0000 1.0000
64.8400 272.0000 1.0000
64.8500 281.0000 1.0000
64.8600 273.0000 1.0000
64.8700 282.0000 1.0000
64.8800 255.0000 1.0000
64.8900 250.0000 1.0000
64.9000 281.0000 1.0000
64.9100 296.0000 1.0000
64.9200 283.0000 1.0000
64.9300 276.0000 1.0000
64.9400 277.0000 1.0000
64.9500 271.0000 1.0000
64.9600 256.0000 1.0000
64.9700 275.0000 1.0000
64.9800 298.0000 1.0000
64.9900 277.0000 1.0000
65.0000 309.0000 1.0000
65.0100 260.0000 1.0000
65.0200 274.0000 1.0000
65.0300 294.0000 1.0000
65.0400 290.0000 1.0000
65.0500 289.0000 1.0000
65.0600 290.0000 1.0000
65.0700 273.0000 1.0000
65.0800 304.0000 1.0000
65.0900 297.0000 1.0000
65.1000 312.0000 1.0000
65.1100 311.0000 1.0000
65.1200 308.0000 1.0000
65.1300 283.0000 1.0000
65.1400 322.0000 1.0000
65.1500 316.0000 1.0000
65.1600 320.0000 1.0000
65.1700 320.0000 1.0000
65.1800 326.0000 1.0000
65.1900 348.0000 1.0000
65.2000 347.0000 1.0000
65.2100 348.0000 1.0000
65.2200 329.0000 1.0000
65.2300 330.0000 1.0000
65.2400 381.0000 1.0000
65.2500 372.0000 1.0000
65.2600 384.0000 1.0000
65.2700 396.0000 1.0000
65.2800 397.0000 1.0000
65.2900 410.0000 1.0000
65.3000 437.0000 1.0000
65.3100 447.0000 1.0000
65.3200 481.0000 1.0000
65.3300 447.0000 1.0000
65.3400 494.0000 1.0000
65.3500 510.0000 1.0000
65.3600 549.0000 1.0000
65.3700 526.0000 1.0000
65.3800 580.0000 1.0000
65.3900 666.0000 1.0000
65.4000 670.0000 1.0000
65.4100 707.0000 1.0000
65.4200 715.0000 1.0000
65.4300 756.0000 1.0000
65.4400 796.0000 1.0000
65.4500 874.0000 1.0000
65.4600 870.0000 1.0000
65.4700 863.0000 1.0000
65.4800 917.0000 1.0000
65.4900 966.0000 1.0000
65.5000 947.0000 1.0000
65.5100 994.0000 1.0000
65.5200 1055.0000 1.0000
65.5300 1023.0000 1.0000
65.5400 1001.0000 1.0000
65.5500 1019.0000 1.0000
65.5600 1053.0000 1.0000
65.5700 1016.0000 1.0000
65.5800 945.0000 1.0000
65.5900 925.0000 1.0000
65.6000 929.0000 1.0000
65.6100 890.0000 1.0000
65.6200 948.0000 1.0000
65.6300 906.0000 1.0000
65.6400 897.0000 1.0000
65.6500 847.0000 1.0000
65.6600 878.0000 1.0000
65.6700 828.0000 1.0000
65.6800 866.0000 1.0000
65.6900 821.0000 1.0000
65.7000 825.0000 1.0000
65.7100 806.0000 1.0000
65.7200 713.0000 1.0000
65.7300 759.0000 1.0000
65.7400 746.0000 1.0000
65.7500 709.0000 1.0000
65.7600 728.0000 1.0000
65.7700 659.0000 1.0000
65.7800 646.0000 1.0000
65.7900 586.0000 1.0000
65.8000 599.0000 1.0000
65.8100 555.0000 1.0000
65.8200 542.0000 1.0000
65.8300 504.0000 1.0000
65.8400 496.0000 1.0000
65.8500 528.0000 1.0000
65.8600 469.0000 1.0000
65.8700 452.0000 1.0000
65.8800 401.0000 1.0000
65.8900 434.0000 1.0000
65.9000 403.0000 1.0000
65.9100 378.0000 1.0000
65.9200 382.0000 1.0000
65.9300 398.0000 1.0000
65.9400 395.0000 1.0000
65.9500 364.0000 1.0000
65.9600 349.0000 1.0000
65.9700 353.0000 1.0000
65.9800 335.0000 1.0000
65.9900 325.0000 1.0000
66.0000 333.0000 1.0000
66.0100 345.0000 1.0000
66.0200 326.0000 1.0000
66.0300 291.0000 1.0000
66.0400 315.0000 1.0000
66.0500 334.0000 1.0000
66.0600 291.0000 1.0000
66.0700 304.0000 1.0000
66.0800 288.0000 1.0000
66.0900 276.0000 1.0000
66.1000 280.0000 1.0000
66.1100 263.0000 1.0000
66.1200 284.0000 1.0000
66.1300 315.0000 1.0000
66.1400 302.0000 1.0000
66.1500 274.0000 1.0000
66.1600 257.0000 1.0000
66.1700 277.0000 1.0000
66.1800 308.0000 1.0000
66.1900 283.0000 1.0000
66.2000 242.0000 1.0000
66.2100 268.0000 1.0000
66.2200 246.0000 1.0000
66.2300 270.0000 1.0000
66.2400 273.0000 1.0000
66.2500 236.0000 1.0000
66.2600 246.0000 1.0000
66.2700 245.0000 1.0000
66.2800 264.0000 1.0000
66.2900 285.0000 1.0000
66.3000 265.0000 1.0000
66.3100 268.0000 1.0000
66.3200 248.0000 1.0000
66.3300 247.0000 1.0000
66.3400 267.0000 1.0000
66.3500 267.0000 1.0000
66.3600 270.0000 1.0000
66.3700 240.0000 1.0000
66.3800 250.0000 1.0000
66.3900 247.0000 1.0000
66.4000 247.0000 1.0000
66.4100 253.0000 1.0000
66.4200 247.0000 1.0000
66.4300 227.0000 1.0000
66.4400 266.0000 1.0000
66.4500 224.0000 1.0000
66.4600 254.0000 1.0000
66.4700 247.0000 1.0000
66.4800 245.0000 1.0000
66.4900 250.0000 1.0000
66.5000 253.0000 1.0000
66.5100 256.0000 1.0000
66.5200 248.0000 1.0000
66.5300 238.0000 1.0000
66.5400 245.0000 1.0000
66.5500 269.0000 1.0000
66.5600 275.0000 1.0000
66.5700 242.0000 1.0000
66.5800 246.0000 1.0000
66.5900 247.0000 1.0000
66.6000 242.0000 1.0000
66.6100 210.0000 1.0000
66.6200 231.0000 1.0000
66.6300 231.0000 1.0000
66.6400 234.0000 1.0000
66.6500 241.0000 1.0000
66.6600 232.0000 1.0000
66.6700 229.0000 1.0000
66.6800 245.0000 1.0000
66.6900 250.0000 1.0000
66.7000 216.0000 1.0000
66.7100 227.0000 1.0000
66.7200 254.0000 1.0000
66.7300 233.0000 1.0000
66.7400 235.0000 1.0000
66.7500 237.0000 1.0000
66.7600 251.0000 1.0000
66.7700 231.0000 1.0000
66.7800 251.0000 1.0000
66.7900 242.0000 1.0000
66.8000 243.0000 1.0000
66.8100 231.0000 1.0000
66.8200 251.0000 1.0000
66.8300 275.0000 1.0000
66.8400 250.0000 1.0000
66.8500 253.0000 1.0000
66.8600 232.0000 1.0000
66.8700 244.0000 1.0000
66.8800 243.0000 1.0000
66.8900 239.0000 1.0000
66.9000 261.0000 1.0000
66.9100 234.0000 1.0000
66.9200 243.0000 1.0000
66.9300 245.0000 1.0000
66.9400 251.0000 1.0000
66.9500 238.0000 1.0000
66.9600 253.0000 1.0000
66.9700 239.0000 1.0000
66.9800 243.0000 1.0000
66.9900 234.0000 1.0000
67.0000 230.0000 1.0000
67.0100 214.0000 1.0000
67.0200 231.0000 1.0000
67.0300 226.0000 1.0000
67.0400 234.0000 1.0000
67.0500 258.0000 1.0000
67.0600 258.0000 1.0000
67.0700 255.0000 1.0000
67.0800 229.0000 1.0000
67.0900 241.0000 1.0000
67.1000 240.0000 1.0000
67.1100 220.0000 1.0000
67.1200 238.0000 1.0000
67.1300 234.0000 1.0000
67.1400 246.0000 1.0000
67.1500 256.0000 1.0000
67.1600 252.0000 1.0000
67.1700 237.0000 1.0000
67.1800 242.0000 1.0000
67.1900 231.0000 1.0000
67.2000 233.0000 1.0000
67.2100 227.0000 1.0000
67.2200 222.0000 1.0000
67.2300 210.0000 1.0000
67.2400 218.0000 1.0000
67.2500 219.0000 1.0000
67.2600 254.0000 1.0000
67.2700 232.0000 1.0000
67.2800 225.0000 1.0000
67.2900 247.0000 1.0000
67.3000 228.0000 1.0000
67.3100 228.0000 1.0000
67.3200 236.0000 1.0000
67.3300 257.0000 1.0000
67.3400 230.0000 1.0000
67.3500 215.0000 1.0000
67.3600 218.0000 1.0000
67.3700 224.0000 1.0000
67.3800 262.0000 1.0000
67.3900 244.0000 1.0000
67.4000 223.0000 1.0000
67.4100 225.0000 1.0000
67.4200 204.0000 1.0000
67.4300 210.0000 1.0000
67.4400 232.0000 1.0000
67.4500 221.0000 1.0000
67.4600 244.0000 1.0000
67.4700 219.0000 1.0000
67.4800 235.0000 1.0000
67.4900 248.0000 1.0000
67.5000 216.0000 1.0000
67.5100 221.0000 1.0000
67.5200 233.0000 1.0000
67.5300 236.0000 1.0000
67.5400 232.0000 1.0000
67.5500 251.0000 1.0000
67.5600 223.0000 1.0000
67.5700 204.0000 1.0000
67.5800 231.0000 1.0000
67.5900 244.0000 1.0000
67.6000 236.0000 1.0000
67.6100 250.0000 1.0000
67.6200 226.0000 1.0000
67.6300 219.0000 1.0000
67.6400 236.0000 1.0000
67.6500 230.0000 1.0000
67.6600 231.0000 1.0000
67.6700 227.0000 1.0000
67.6800 255.0000 1.0000
67.6900 245.0000 1.0000
67.7000 248.0000 1.0000
67.7100 227.0000 1.0000
67.7200 221.0000 1.0000
67.7300 226.0000 1.0000
67.7400 207.0000 1.0000
67.7500 230.0000 1.0000
67.7600 200.0000 1.0000
67.7700 224.0000 1.0000
67.7800 212.0000 1.0000
67.7900 258.0000 1.0000
67.8000 272.0000 1.0000
67.8100 222.0000 1.0000
67.8200 239.0000 1.0000
67.8300 209.0000 1.0000
67.8400 244.0000 1.0000
67.8500 256.0000 1.0000
67.8600 260.0000 1.0000
67.8700 257.0000 1.0000
67.8800 245.0000 1.0000
67.8900 231.0000 1.0000
67.9000 241.0000 1.0000
67.9100 223.0000 1.0000
67.9200 255.0000 1.0000
67.9300 236.0000 1.0000
67.9400 236.0000 1.0000
67.9500 231.0000 1.0000
67.9600 246.0000 1.0000
67.9700 227.0000 1.0000
67.9800 233.0000 1.0000
67.9900 214.0000 1.0000
68.0000 265.0000 1.0000
68.0100 228.0000 1.0000
68.0200 226.0000 1.0000
68.0300 233.0000 1.0000
68.0400 222.0000 1.0000
68.0500 228.0000 1.0000
68.0600 230.0000 1.0000
68.0700 239.0000 1.0000
68.0800 244.0000 1.0000
68.0900 229.0000 1.0000
68.1000 220.0000 1.0000
68.1100 211.0000 1.0000
68.1200 258.0000 1.0000
68.1300 212.0000 1.0000
68.1400 237.0000 1.0000
68.1500 235.0000 1.0000
68.1600 205.0000 1.0000
68.1700 225.0000 1.0000
68.1800 228.0000 1.0000
68.1900 224.0000 1.0000
68.2000 209.0000 1.0000
68.2100 247.0000 1.0000
68.2200 209.0000 1.0000
68.2300 228.0000 1.0000
68.2400 249.0000 1.0000
68.2500 249.0000 1.0000
68.2600 228.0000 1.0000
68.2700 213.0000 1.0000
68.2800 250.0000 1.0000
68.2900 231.0000 1.0000
68.3000 246.0000 1.0000
68.3100 221.0000 1.0000
68.3200 210.0000 1.0000
68.3300 253.0000 1.0000
68.3400 219.0000 1.0000
68.3500 233.0000 1.0000
68.3600 225.0000 1.0000
68.3700 248.0000 1.0000
68.3800 224.0000 1.0000
68.3900 228.0000 1.0000
68.4000 229.0000 1.0000
68.4100 238.0000 1.0000
68.4200 208.0000 1.0000
68.4300 234.0000 1.0000
68.4400 224.0000 1.0000
68.4500 225.0000 1.0000
68.4600 230.0000 1.0000
68.4700 235.0000 1.0000
68.4800 218.0000 1.0000
68.4900 240.0000 1.0000
68.5000 237.0000 1.0000
68.5100 230.0000 1.0000
68.5200 235.0000 1.0000
68.5300 257.0000 1.0000
68.5400 223.0000 1.0000
68.5500 205.0000 1.0000
68.5600 221.0000 1.0000
68.5700 232.0000 1.0000
68.5800 250.0000 1.0000
68.5900 240.0000 1.0000
68.6000 235.0000 1.0000
68.6100 227.0000 1.0000
68.6200 242.0000 1.0000
68.6300 224.0000 1.0000
68.6400 206.0000 1.0000
68.6500 240.0000 1.0000
68.6600 222.0000 1.0000
68.6700 249.0000 1.0000
68.6800 232.0000 1.0000
68.6900 231.0000 1.0000
68.7000 251.0000 1.0000
68.7100 226.0000 1.0000
68.7200 204.0000 1.0000
68.7300 223.0000 1.0000
68.7400 236.0000 1.0000
68.7500 230.0000 1.0000
68.7600 211.0000 1.0000
68.7700 212.0000 1.0000
68.7800 234.0000 1.0000
68.7900 221.0000 1.0000
68.8000 231.0000 1.0000
68.8100 212.0000 1.0000
68.8200 220.0000 1.0000
68.8300 228.0000 1.0000
68.8400 220.0000 1.0000
68.8500 247.0000 1.0000
68.8600 223.0000 1.0000
68.8700 240.0000 1.0000
68.8800 239.0000 1.0000
68.8900 247.0000 1.0000
68.9000 229.0000 1.0000
68.9100 229.0000 1.0000
68.9200 239.0000 1.0000
68.9300 241.0000 1.0000
68.9400 229.0000 1.0000
68.9500 217.0000 1.0000
68.9600 233.0000 1.0000
68.9700 232.0000 1.0000
68.9800 234.0000 1.0000
68.9900 238.0000 1.0000
69.0000 226.0000 1.0000
69.0100 240.0000 1.0000
69.0200 227.0000 1.0000
69.0300 223.0000 1.0000
69.0400 224.0000 1.0000
69.0500 234.0000 1.0000
69.0600 221.0000 1.0000
69.0700 235.0000 1.0000
69.0800 230.0000 1.0000
69.0900 202.0000 1.0000
69.1000 234.0000 1.0000
69.1100 212.0000 1.0000
69.1200 197.0000 1.0000
69.1300 179.0000 1.0000
69.1400 229.0000 1.0000
69.1500 240.0000 1.0000
69.1600 206.0000 1.0000
69.1700 219.0000 1.0000
69.1800 220.0000 1.0000
69.1900 226.0000 1.0000
69.2000 232.0000 1.0000
69.2100 232.0000 1.0000
69.2200 253.0000 1.0000
69.2300 256.0000 1.0000
69.2400 212.0000 1.0000
69.2500 211.0000 1.0000
69.2600 210.0000 1.0000
69.2700 226.0000 1.0000
69.2800 212.0000 1.0000
69.2900 213.0000 1.0000
69.3000 203.0000 1.0000
69.3100 210.0000 1.0000
69.3200 227.0000 1.0000
69.3300 231.0000 1.0000
69.3400 239.0000 1.0000
69.3500 228.0000 1.0000
69.3600 210.0000 1.0000
69.3700 209.0000 1.0000
69.3800 247.0000 1.0000
69.3900 236.0000 1.0000
69.4000 222.0000 1.0000
69.4100 239.0000 1.0000
69.4200 240.0000 1.0000
69.4300 223.0000 1.0000
69.4400 217.0000 1.0000
69.4500 241.0000 1.0000
69.4600 226.0000 1.0000
69.4700 226.0000 1.0000
69.4800 236.0000 1.0000
69.4900 221.0000 1.0000
69.5000 221.0000 1.0000
69.5100 232.0000 1.0000
69.5200 239.0000 1.0000
69.5300 237.0000 1.0000
69.5400 209.0000 1.0000
69.5500 219.0000 1.0000
69.5600 219.0000 1.0000
69.5700 234.0000 1.0000
69.5800 227.0000 1.0000
69.5900 223.0000 1.0000
69.6000 222.0000 1.0000
69.6100 227.0000 1.0000
69.6200 219.0000 1.0000
69.6300 219.0000 1.0000
69.6400 232.0000 1.0000
69.6500 224.0000 1.0000
69.6600 201.0000 1.0000
69.6700 199.0000 1.0000
69.6800 233.0000 1.0000
69.6900 222.0000 1.0000
69.7000 214.0000 1.0000
69.7100 203.0000 1.0000
69.7200 208.0000 1.0000
69.7300 212.0000 1.0000
69.7400 221.0000 1.0000
69.7500 212.0000 1.0000
69.7600 234.0000 1.0000
69.7700 232.0000 1.0000
69.7800 220.0000 1.0000
69.7900 209.0000 1.0000
69.8000 217.0000 1.0000
69.8100 194.0000 1.0000
69.8200 229.0000 1.0000
69.8300 216.0000 1.0000
69.8400 216.0000 1.0000
69.8500 223.0000 1.0000
69.8600 211.0000 1.0000
69.8700 217.0000 1.0000
69.8800 215.0000 1.0000
69.8900 206.0000 1.0000
69.9000 203.0000 1.0000
69.9100 218.0000 1.0000
69.9200 216.0000 1.0000
69.9300 227.0000 1.0000
69.9400 197.0000 1.0000
69.9500 212.0000 1.0000
69.9600 220.0000 1.0000
69.9700 221.0000 1.0000
69.9800 236.0000 1.0000
69.9900 222.0000 1.0000
70.0000 208.0000 1.0000
*RAS_INT_END
*RAS_TEMPERATURE_START
*RAS_TEMPERATURE_END
*RAS_DATA_END
