*RAS_DATA_START
*RAS_HEADER_START
*DISP_FMT_X "%.2f"
*DISP_FMT_Y "%.0f"
*DISP_FULLSCALE "13040.0000000000"
*DISP_LINE_COLOR "255.0000000000"
*DISP_LINE_STYLE "0.0000000000"
*DISP_LINE_WIDTH "0.2500000000"
*DISP_NOTE "測定データ-2"
*DISP_OFFSET_Y "0.0000000000"
*DISP_PEAKSEARCH_UNIT_Y "cps"
*DISP_RANGE_BOTTOM "0.0000000000"
*DISP_RANGE_LEFT "20.0000000000"
*DISP_RANGE_LOGCUTOFF "0.0100000000"
*DISP_RANGE_RIGHT "70.0000000000"
*DISP_RANGE_TOP "13040.0000000000"
*DISP_SCALE_MODE_Y "0.0000000000"
*DISP_TAB_NAME "2θ/θ"
*DISP_TITLE_Y "強度"
*DISP_UNIT_Y "cps"
*DISP_WINDOW_NAME "MSG_MACROENGINE"
*FILE_COMMENT " "
*FILE_MD5 ""
*FILE_MEMO " "
*FILE_OPERATOR "Administrator"
*FILE_SAMPLE " "
*FILE_TYPE "RAS_RAW"
*FILE_USERGROUP "システムマネージャ"
*FILE_VERSION "1.0000000000"
*HW_ATTACHMENT_ID "ATT0025"
*HW_ATTACHMENT_NAME "標準|Standard"
*HW_COUNTER_ID-0 "CUT0025"
*HW_COUNTER_ID-1 "CUT0020"
*HW_COUNTER_ID-2 "CUT0020"
*HW_COUNTER_ID-3 "CSL0021"
*HW_COUNTER_ID-4 "CMC0021"
*HW_COUNTER_NAME-0 "D/teX Ultra|D/teX Ultra"
*HW_COUNTER_NAME-1 "None|None"
*HW_COUNTER_NAME-2 "None|None"
*HW_COUNTER_NAME-3 "BBM|BBM"
*HW_COUNTER_NAME-4 "検出器モノクロメータ|Detector monochromator"
*HW_COUNTER_SELECT_NAME "D/teX Ultra|D/teX Ultra"
*HW_GONIOMETER_ID "GON0023"
*HW_GONIOMETER_NAME "SmartLab|SmartLab"
*HW_GONIOMETER_RADIUS-0 "90.0"
*HW_GONIOMETER_RADIUS-1 "114.0"
*HW_GONIOMETER_RADIUS-2 "190.0"
*HW_GONIOMETER_RADIUS-3 "300.0"
*HW_GONIOMETER_RADIUS-4 "187.0"
*HW_GONIOMETER_RADIUS-5 "300.0"
*HW_GONIOMETER_RADIUS-6 "113.0"
*HW_GONIOMETER_RADIUS-7 "331.0"
*HW_I_OPT_ID-0 "CBO0021"
*HW_I_OPT_ID-1 "ICR0023"
*HW_I_OPT_ID-2 "ISL0021"
*HW_I_OPT_ID-3 "ISO0021"
*HW_I_OPT_ID-4 "IAD0021"
*HW_I_OPT_ID-5 "IPR0001"
*HW_I_OPT_NAME-0 "CBOユニット|CBO unit"
*HW_I_OPT_NAME-1 "標準入射光学ユニット|Standard incident optical unit"
*HW_I_OPT_NAME-2 "標準入射スリットボックス|Standard incident slit box"
*HW_I_OPT_NAME-3 "入射平行スリット|Incident parallel slit"
*HW_I_OPT_NAME-4 "長手制限スリット|Length limiting slit"
*HW_I_OPT_NAME-5 "None|None"
*HW_R_ATTENUATER_AUTOMODE "0"
*HW_R_OPT_ID-0 "RSS0021"
*HW_R_OPT_ID-1 "RCR0023"
*HW_R_OPT_ID-2 "RSO0021"
*HW_R_OPT_ID-3 "RRS0021"
*HW_R_OPT_ID-4 "ATN0021"
*HW_R_OPT_ID-5 "RFL0021"
*HW_R_OPT_ID-6 "RAD0021"
*HW_R_OPT_NAME-0 "標準受光スリットボックス1|Standard receiving slit box # 1"
*HW_R_OPT_NAME-1 "標準受光光学ユニット1|Standard receiving unit # 1"
*HW_R_OPT_NAME-2 "標準受光光学ユニット2|Standard receiving optical unit # 2"
*HW_R_OPT_NAME-3 "標準受光スリットボックス2|Standard receiving slit box # 2"
*HW_R_OPT_NAME-4 "標準アッテネータ|Standard Attenuator"
*HW_R_OPT_NAME-5 "Cu Kβ|Cu K-beta"
*HW_R_OPT_NAME-6 "調整用受光スリット|Alignment receiving slit"
*HW_SAMPLE_HOLDER_ID "SMP0023"
*HW_SAMPLE_HOLDER_NAME "標準Zステージ|Standard Z stage"
*HW_XG_CURRENT_MAX "50"
*HW_XG_CURRENT_MIN "2"
*HW_XG_CURRENT_RESOLUTION "1"
*HW_XG_CURRENT_UNIT "mA"
*HW_XG_FOCUS "1mm x 10mm"
*HW_XG_FOCUS_TYPE "Normal"
*HW_XG_ID ""
*HW_XG_NAME "3kW 封入管(ID:1200)|3kW Sealed tube(ID:1200)"
*HW_XG_TARGET_ATOMIC_NUMBER "29.0000000000"
*HW_XG_TARGET_NAME "Cu"
*HW_XG_TYPE "Hermetic"
*HW_XG_VOLTAGE_MAX "60"
*HW_XG_VOLTAGE_MIN "20"
*HW_XG_VOLTAGE_RESOLUTION "1"
*HW_XG_VOLTAGE_UNIT "kV"
*HW_XG_WATT_MAX "1.500"
*HW_XG_WATT_UNIT "kW"
*HW_XG_WAVE_LENGTH_ALPHA1 "1.540593"
*HW_XG_WAVE_LENGTH_ALPHA2 "1.544414"
*HW_XG_WAVE_LENGTH_BETA "1.392250"
*MEAS_COND_AXIS_NAME-0 "2θ/θ"
*MEAS_COND_AXIS_NAME-1 "2θ"
*MEAS_COND_AXIS_NAME-2 "ω"
*MEAS_COND_AXIS_NAME-3 "Z"
*MEAS_COND_AXIS_NAME-4 "2θ/ω"
*MEAS_COND_AXIS_NAME-5 "θs"
*MEAS_COND_AXIS_NAME-6 "θd"
*MEAS_COND_AXIS_NAME-7 "Ts"
*MEAS_COND_AXIS_NAME-8 "CBO選択スリット"
*MEAS_COND_AXIS_NAME-9 "M"
*MEAS_COND_AXIS_NAME-10 "入射平行スリット"
*MEAS_COND_AXIS_NAME-11 "入射スリット"
*MEAS_COND_AXIS_NAME-12 ""
*MEAS_COND_AXIS_NAME-13 "Zs"
*MEAS_COND_AXIS_NAME-14 "入射光学素子"
*MEAS_COND_AXIS_NAME-15 "長手制限スリット"
*MEAS_COND_AXIS_NAME-16 "センタースリット"
*MEAS_COND_AXIS_NAME-17 "フィルター"
*MEAS_COND_AXIS_NAME-18 "受光スリット1"
*MEAS_COND_AXIS_NAME-19 "受光スリット2"
*MEAS_COND_AXIS_NAME-20 "受光光学素子"
*MEAS_COND_AXIS_NAME-21 "受光平行スリット"
*MEAS_COND_AXIS_NAME-22 "調整用受光スリット"
*MEAS_COND_AXIS_NAME-23 ""
*MEAS_COND_AXIS_NAME-24 ""
*MEAS_COND_AXIS_NAME-25 "Zd"
*MEAS_COND_AXIS_NAME-26 "アッテネータ"
*MEAS_COND_AXIS_NAME-27 "検出器モノクロメータ"
*MEAS_COND_AXIS_NAME-28 "モノクロメータスリット"
*MEAS_COND_AXIS_NAME-29 "プライマリビーム"
*MEAS_COND_AXIS_NAME-30 "PHA"
*MEAS_COND_AXIS_NAME_INTERNAL-0 "TwoThetaTheta"
*MEAS_COND_AXIS_NAME_INTERNAL-1 "TwoTheta"
*MEAS_COND_AXIS_NAME_INTERNAL-2 "Omega"
*MEAS_COND_AXIS_NAME_INTERNAL-3 "Z"
*MEAS_COND_AXIS_NAME_INTERNAL-4 "TwoThetaOmega"
*MEAS_COND_AXIS_NAME_INTERNAL-5 "ThetaS"
*MEAS_COND_AXIS_NAME_INTERNAL-6 "ThetaD"
*MEAS_COND_AXIS_NAME_INTERNAL-7 "Ts"
*MEAS_COND_AXIS_NAME_INTERNAL-8 "CBO"
*MEAS_COND_AXIS_NAME_INTERNAL-9 "CBO-M"
*MEAS_COND_AXIS_NAME_INTERNAL-10 "IncidentSollerSlit"
*MEAS_COND_AXIS_NAME_INTERNAL-11 "IncidentSlitBox"
*MEAS_COND_AXIS_NAME_INTERNAL-12 "IncidentSlitBox-_Axis"
*MEAS_COND_AXIS_NAME_INTERNAL-13 "Zs"
*MEAS_COND_AXIS_NAME_INTERNAL-14 "IncidentMonochromator"
*MEAS_COND_AXIS_NAME_INTERNAL-15 "IncidentAxdSlit"
*MEAS_COND_AXIS_NAME_INTERNAL-16 "CenterSlit"
*MEAS_COND_AXIS_NAME_INTERNAL-17 "Filter"
*MEAS_COND_AXIS_NAME_INTERNAL-18 "ReceivingSlitBox1"
*MEAS_COND_AXIS_NAME_INTERNAL-19 "ReceivingSlitBox2"
*MEAS_COND_AXIS_NAME_INTERNAL-20 "ReceivingOptics"
*MEAS_COND_AXIS_NAME_INTERNAL-21 "ReceivingSollerSlit"
*MEAS_COND_AXIS_NAME_INTERNAL-22 "ReceivingAxdSlit"
*MEAS_COND_AXIS_NAME_INTERNAL-23 "ReceivingSlitBox1-_Axis"
*MEAS_COND_AXIS_NAME_INTERNAL-24 "ReceivingSlitBox2-_Axis"
*MEAS_COND_AXIS_NAME_INTERNAL-25 "ReceivingSlitBox2-Zd"
*MEAS_COND_AXIS_NAME_INTERNAL-26 "Attenuator"
*MEAS_COND_AXIS_NAME_INTERNAL-27 "CounterMonochromator"
*MEAS_COND_AXIS_NAME_INTERNAL-28 "CounterSlit"
*MEAS_COND_AXIS_NAME_INTERNAL-29 "IncidentPrimary"
*MEAS_COND_AXIS_NAME_INTERNAL-30 "PHA"
*MEAS_COND_AXIS_NAME_MAGICNO-0 "83951616.0000000000"
*MEAS_COND_AXIS_NAME_MAGICNO-1 "268632064.0000000000"
*MEAS_COND_AXIS_NAME_MAGICNO-2 "268500992.0000000000"
*MEAS_COND_AXIS_NAME_MAGICNO-3 "285278208.0000000000"
*MEAS_COND_AXIS_NAME_MAGICNO-4 "83951616.0000000000"
*MEAS_COND_AXIS_NAME_MAGICNO-5 "131072.0000000000"
*MEAS_COND_AXIS_NAME_MAGICNO-6 "131072.0000000000"
*MEAS_COND_AXIS_NAME_MAGICNO-7 "318898176.0000000000"
*MEAS_COND_AXIS_NAME_MAGICNO-8 "20971521.0000000000"
*MEAS_COND_AXIS_NAME_MAGICNO-9 "285343744.0000000000"
*MEAS_COND_AXIS_NAME_MAGICNO-10 "20971521.0000000000"
*MEAS_COND_AXIS_NAME_MAGICNO-11 "22020097.0000000000"
*MEAS_COND_AXIS_NAME_MAGICNO-12 "25165824.0000000000"
*MEAS_COND_AXIS_NAME_MAGICNO-13 "318898176.0000000000"
*MEAS_COND_AXIS_NAME_MAGICNO-14 "1.0000000000"
*MEAS_COND_AXIS_NAME_MAGICNO-15 "20971521.0000000000"
*MEAS_COND_AXIS_NAME_MAGICNO-16 "20971521.0000000000"
*MEAS_COND_AXIS_NAME_MAGICNO-17 "20971521.0000000000"
*MEAS_COND_AXIS_NAME_MAGICNO-18 "23068673.0000000000"
*MEAS_COND_AXIS_NAME_MAGICNO-19 "23068673.0000000000"
*MEAS_COND_AXIS_NAME_MAGICNO-20 "20971521.0000000000"
*MEAS_COND_AXIS_NAME_MAGICNO-21 "20971521.0000000000"
*MEAS_COND_AXIS_NAME_MAGICNO-22 "20971521.0000000000"
*MEAS_COND_AXIS_NAME_MAGICNO-23 "25165824.0000000000"
*MEAS_COND_AXIS_NAME_MAGICNO-24 "25165824.0000000000"
*MEAS_COND_AXIS_NAME_MAGICNO-25 "285343744.0000000000"
*MEAS_COND_AXIS_NAME_MAGICNO-26 "17301505.0000000000"
*MEAS_COND_AXIS_NAME_MAGICNO-27 "20971521.0000000000"
*MEAS_COND_AXIS_NAME_MAGICNO-28 "20971521.0000000000"
*MEAS_COND_AXIS_NAME_MAGICNO-29 "20971521.0000000000"
*MEAS_COND_AXIS_NAME_MAGICNO-30 "0.0000000000"
*MEAS_COND_AXIS_OFFSET-0 "-"
*MEAS_COND_AXIS_OFFSET-1 "-0.0310000000"
*MEAS_COND_AXIS_OFFSET-2 "0.2529000000"
*MEAS_COND_AXIS_OFFSET-3 "-"
*MEAS_COND_AXIS_OFFSET-4 "-"
*MEAS_COND_AXIS_OFFSET-5 "0.2529000000"
*MEAS_COND_AXIS_OFFSET-6 "-0.2839000000"
*MEAS_COND_AXIS_OFFSET-7 "-"
*MEAS_COND_AXIS_OFFSET-8 "-"
*MEAS_COND_AXIS_OFFSET-9 "-"
*MEAS_COND_AXIS_OFFSET-10 "-"
*MEAS_COND_AXIS_OFFSET-11 "-"
*MEAS_COND_AXIS_OFFSET-12 "-"
*MEAS_COND_AXIS_OFFSET-13 "-"
*MEAS_COND_AXIS_OFFSET-14 "-"
*MEAS_COND_AXIS_OFFSET-15 "-"
*MEAS_COND_AXIS_OFFSET-16 "-"
*MEAS_COND_AXIS_OFFSET-17 "-"
*MEAS_COND_AXIS_OFFSET-18 "-"
*MEAS_COND_AXIS_OFFSET-19 "-"
*MEAS_COND_AXIS_OFFSET-20 "-"
*MEAS_COND_AXIS_OFFSET-21 "-"
*MEAS_COND_AXIS_OFFSET-22 "-"
*MEAS_COND_AXIS_OFFSET-23 "-"
*MEAS_COND_AXIS_OFFSET-24 "-"
*MEAS_COND_AXIS_OFFSET-25 "-"
*MEAS_COND_AXIS_OFFSET-26 "-"
*MEAS_COND_AXIS_OFFSET-27 "-"
*MEAS_COND_AXIS_OFFSET-28 "-"
*MEAS_COND_AXIS_OFFSET-29 "-"
*MEAS_COND_AXIS_OFFSET-30 "-"
*MEAS_COND_AXIS_POSITION-0 "0.0000000000"
*MEAS_COND_AXIS_POSITION-1 "0.0000000000"
*MEAS_COND_AXIS_POSITION-2 "0.0000000000"
*MEAS_COND_AXIS_POSITION-3 "-2.8813000000"
*MEAS_COND_AXIS_POSITION-4 "0.0000000000"
*MEAS_COND_AXIS_POSITION-5 "0.0000000000"
*MEAS_COND_AXIS_POSITION-6 "0.0000000000"
*MEAS_COND_AXIS_POSITION-7 "-0.7498700000"
*MEAS_COND_AXIS_POSITION-8 "BB"
*MEAS_COND_AXIS_POSITION-9 "0.0000000000"
*MEAS_COND_AXIS_POSITION-10 "Soller_slit_5.0deg"
*MEAS_COND_AXIS_POSITION-11 "2/3deg"
*MEAS_COND_AXIS_POSITION-12 "2.2088000000"
*MEAS_COND_AXIS_POSITION-13 "-0.6412500000"
*MEAS_COND_AXIS_POSITION-14 "0.0000000000"
*MEAS_COND_AXIS_POSITION-15 "10.0mm"
*MEAS_COND_AXIS_POSITION-16 "None"
*MEAS_COND_AXIS_POSITION-17 "Cu_K-beta"
*MEAS_COND_AXIS_POSITION-18 "13.000mm"
*MEAS_COND_AXIS_POSITION-19 "13.000mm"
*MEAS_COND_AXIS_POSITION-20 "No_unit"
*MEAS_COND_AXIS_POSITION-21 "Soller_slit_5.0deg"
*MEAS_COND_AXIS_POSITION-22 "None"
*MEAS_COND_AXIS_POSITION-23 "13.0000000000"
*MEAS_COND_AXIS_POSITION-24 "13.0000000000"
*MEAS_COND_AXIS_POSITION-25 "0.0281300000"
*MEAS_COND_AXIS_POSITION-26 "Open"
*MEAS_COND_AXIS_POSITION-27 "None"
*MEAS_COND_AXIS_POSITION-28 "None"
*MEAS_COND_AXIS_POSITION-29 "None"
*MEAS_COND_AXIS_POSITION-30 "38.0000000000"
*MEAS_COND_AXIS_UNIT-0 "deg"
*MEAS_COND_AXIS_UNIT-1 "deg"
*MEAS_COND_AXIS_UNIT-2 "deg"
*MEAS_COND_AXIS_UNIT-3 "mm"
*MEAS_COND_AXIS_UNIT-4 "deg"
*MEAS_COND_AXIS_UNIT-5 "deg"
*MEAS_COND_AXIS_UNIT-6 "deg"
*MEAS_COND_AXIS_UNIT-7 "mm"
*MEAS_COND_AXIS_UNIT-8 ""
*MEAS_COND_AXIS_UNIT-9 "pulse"
*MEAS_COND_AXIS_UNIT-10 ""
*MEAS_COND_AXIS_UNIT-11 ""
*MEAS_COND_AXIS_UNIT-12 "mm"
*MEAS_COND_AXIS_UNIT-13 "mm"
*MEAS_COND_AXIS_UNIT-14 ""
*MEAS_COND_AXIS_UNIT-15 ""
*MEAS_COND_AXIS_UNIT-16 ""
*MEAS_COND_AXIS_UNIT-17 ""
*MEAS_COND_AXIS_UNIT-18 ""
*MEAS_COND_AXIS_UNIT-19 ""
*MEAS_COND_AXIS_UNIT-20 ""
*MEAS_COND_AXIS_UNIT-21 ""
*MEAS_COND_AXIS_UNIT-22 ""
*MEAS_COND_AXIS_UNIT-23 "mm"
*MEAS_COND_AXIS_UNIT-24 "mm"
*MEAS_COND_AXIS_UNIT-25 "mm"
*MEAS_COND_AXIS_UNIT-26 ""
*MEAS_COND_AXIS_UNIT-27 ""
*MEAS_COND_AXIS_UNIT-28 ""
*MEAS_COND_AXIS_UNIT-29 ""
*MEAS_COND_AXIS_UNIT-30 "div"
*MEAS_COND_COUNTER_CNTLOSS_CORR "0.0000000000"
*MEAS_COND_COUNTER_PHABASE "38.0000000000"
*MEAS_COND_COUNTER_PHAWINDOW "16.0000000000"
*MEAS_COND_COUNTER_PHA_UNIT "div"
*MEAS_COND_COUNTER_TAUDIFF "30.0000000000"
*MEAS_COND_COUNTER_TAUINT "0.0000000000"
*MEAS_COND_IRRADIATION_MODE "OFF"
*MEAS_COND_IRRADIATION_WIDTH ""
*MEAS_COND_OPT_ATTR "集中法"
*MEAS_COND_OPT_NAME "@集中法"
*MEAS_COND_UNSYMMETRIC_MODE "OFF"
*MEAS_COND_XG_CURRENT "30.0000000000"
*MEAS_COND_XG_VOLTAGE "40.0000000000"
*MEAS_COND_XG_WAVE_TYPE "Ka"
*MEAS_DATA_COUNT "5001.0000000000"
*MEAS_SCAN_AXIS_X "2θ/θ"
*MEAS_SCAN_AXIS_X_INTERNAL "TwoThetaTheta"
*MEAS_SCAN_END_TIME "12/22/22 14:01:18"
*MEAS_SCAN_MODE "CONTINUOUS"
*MEAS_SCAN_MONITOR "0"
*MEAS_SCAN_RESOLUTION_X "0.0002"
*MEAS_SCAN_SPEED "2.5"
*MEAS_SCAN_SPEED_UNIT "deg/min"
*MEAS_SCAN_START "20.0000000000"
*MEAS_SCAN_START_TIME "12/22/22 13:39:55"
*MEAS_SCAN_STEP "0.0100000000"
*MEAS_SCAN_STOP "70.0000000000"
*MEAS_SCAN_UNIT_X "deg"
*MEAS_SCAN_UNIT_Y "counts"
*RAS_HEADER_END
*RAS_INT_START
20.0000 822.0000 1.0000
20.0100 765.0000 1.0000
20.0200 830.0000 1.0000
20.0300 831.0000 1.0000
20.0400 786.0000 1.0000
20.0500 780.0000 1.0000
20.0600 809.0000 1.0000
20.0700 815.0000 1.0000
20.0800 825.0000 1.0000
20.0900 819.0000 1.0000
20.1000 793.0000 1.0000
20.1100 790.0000 1.0000
20.1200 796.0000 1.0000
20.1300 803.0000 1.0000
20.1400 805.0000 1.0000
20.1500 827.0000 1.0000
20.1600 832.0000 1.0000
20.1700 760.0000 1.0000
20.1800 776.0000 1.0000
20.1900 785.0000 1.0000
20.2000 842.0000 1.0000
20.2100 832.0000 1.0000
20.2200 819.0000 1.0000
20.2300 817.0000 1.0000
20.2400 763.0000 1.0000
20.2500 797.0000 1.0000
20.2600 794.0000 1.0000
20.2700 813.0000 1.0000
20.2800 812.0000 1.0000
20.2900 855.0000 1.0000
20.3000 820.0000 1.0000
20.3100 813.0000 1.0000
20.3200 790.0000 1.0000
20.3300 810.0000 1.0000
20.3400 810.0000 1.0000
20.3500 804.0000 1.0000
20.3600 827.0000 1.0000
20.3700 829.0000 1.0000
20.3800 782.0000 1.0000
20.3900 792.0000 1.0000
20.4000 795.0000 1.0000
20.4100 838.0000 1.0000
20.4200 813.0000 1.0000
20.4300 788.0000 1.0000
20.4400 778.0000 1.0000
20.4500 793.0000 1.0000
20.4600 774.0000 1.0000
20.4700 815.0000 1.0000
20.4800 806.0000 1.0000
20.4900 796.0000 1.0000
20.5000 835.0000 1.0000
20.5100 842.0000 1.0000
20.5200 769.0000 1.0000
20.5300 798.0000 1.0000
20.5400 775.0000 1.0000
20.5500 802.0000 1.0000
20.5600 804.0000 1.0000
20.5700 767.0000 1.0000
20.5800 830.0000 1.0000
20.5900 801.0000 1.0000
20.6000 816.0000 1.0000
20.6100 786.0000 1.0000
20.6200 817.0000 1.0000
20.6300 838.0000 1.0000
20.6400 820.0000 1.0000
20.6500 831.0000 1.0000
20.6600 818.0000 1.0000
20.6700 797.0000 1.0000
20.6800 783.0000 1.0000
20.6900 763.0000 1.0000
20.7000 842.0000 1.0000
20.7100 800.0000 1.0000
20.7200 791.0000 1.0000
20.7300 807.0000 1.0000
20.7400 787.0000 1.0000
20.7500 780.0000 1.0000
20.7600 782.0000 1.0000
20.7700 827.0000 1.0000
20.7800 820.0000 1.0000
20.7900 796.0000 1.0000
20.8000 763.0000 1.0000
20.8100 770.0000 1.0000
20.8200 773.0000 1.0000
20.8300 817.0000 1.0000
20.8400 778.0000 1.0000
20.8500 793.0000 1.0000
20.8600 780.0000 1.0000
20.8700 781.0000 1.0000
20.8800 794.0000 1.0000
20.8900 814.0000 1.0000
20.9000 804.0000 1.0000
20.9100 798.0000 1.0000
20.9200 871.0000 1.0000
20.9300 787.0000 1.0000
20.9400 818.0000 1.0000
20.9500 820.0000 1.0000
20.9600 770.0000 1.0000
20.9700 782.0000 1.0000
20.9800 840.0000 1.0000
20.9900 803.0000 1.0000
21.0000 790.0000 1.0000
21.0100 782.0000 1.0000
21.0200 787.0000 1.0000
21.0300 786.0000 1.0000
21.0400 775.0000 1.0000
21.0500 829.0000 1.0000
21.0600 778.0000 1.0000
21.0700 810.0000 1.0000
21.0800 804.0000 1.0000
21.0900 831.0000 1.0000
21.1000 830.0000 1.0000
21.1100 784.0000 1.0000
21.1200 791.0000 1.0000
21.1300 813.0000 1.0000
21.1400 797.0000 1.0000
21.1500 765.0000 1.0000
21.1600 819.0000 1.0000
21.1700 802.0000 1.0000
21.1800 818.0000 1.0000
21.1900 788.0000 1.0000
21.2000 802.0000 1.0000
21.2100 773.0000 1.0000
21.2200 814.0000 1.0000
21.2300 819.0000 1.0000
21.2400 784.0000 1.0000
21.2500 774.0000 1.0000
21.2600 799.0000 1.0000
21.2700 801.0000 1.0000
21.2800 779.0000 1.0000
21.2900 782.0000 1.0000
21.3000 776.0000 1.0000
21.3100 789.0000 1.0000
21.3200 788.0000 1.0000
21.3300 807.0000 1.0000
21.3400 808.0000 1.0000
21.3500 787.0000 1.0000
21.3600 797.0000 1.0000
21.3700 842.0000 1.0000
21.3800 831.0000 1.0000
21.3900 803.0000 1.0000
21.4000 808.0000 1.0000
21.4100 796.0000 1.0000
21.4200 797.0000 1.0000
21.4300 770.0000 1.0000
21.4400 757.0000 1.0000
21.4500 768.0000 1.0000
21.4600 748.0000 1.0000
21.4700 760.0000 1.0000
21.4800 779.0000 1.0000
21.4900 802.0000 1.0000
21.5000 808.0000 1.0000
21.5100 800.0000 1.0000
21.5200 834.0000 1.0000
21.5300 812.0000 1.0000
21.5400 785.0000 1.0000
21.5500 771.0000 1.0000
21.5600 791.0000 1.0000
21.5700 826.0000 1.0000
21.5800 802.0000 1.0000
21.5900 775.0000 1.0000
21.6000 840.0000 1.0000
21.6100 754.0000 1.0000
21.6200 721.0000 1.0000
21.6300 777.0000 1.0000
21.6400 789.0000 1.0000
21.6500 766.0000 1.0000
21.6600 815.0000 1.0000
21.6700 794.0000 1.0000
21.6800 785.0000 1.0000
21.6900 826.0000 1.0000
21.7000 822.0000 1.0000
21.7100 741.0000 1.0000
21.7200 771.0000 1.0000
21.7300 797.0000 1.0000
21.7400 759.0000 1.0000
21.7500 794.0000 1.0000
21.7600 776.0000 1.0000
21.7700 783.0000 1.0000
21.7800 775.0000 1.0000
21.7900 815.0000 1.0000
21.8000 840.0000 1.0000
21.8100 802.0000 1.0000
21.8200 798.0000 1.0000
21.8300 809.0000 1.0000
21.8400 798.0000 1.0000
21.8500 780.0000 1.0000
21.8600 807.0000 1.0000
21.8700 803.0000 1.0000
21.8800 816.0000 1.0000
21.8900 833.0000 1.0000
21.9000 835.0000 1.0000
21.9100 811.0000 1.0000
21.9200 789.0000 1.0000
21.9300 753.0000 1.0000
21.9400 793.0000 1.0000
21.9500 773.0000 1.0000
21.9600 804.0000 1.0000
21.9700 821.0000 1.0000
21.9800 752.0000 1.0000
21.9900 749.0000 1.0000
22.0000 831.0000 1.0000
22.0100 785.0000 1.0000
22.0200 810.0000 1.0000
22.0300 793.0000 1.0000
22.0400 805.0000 1.0000
22.0500 793.0000 1.0000
22.0600 811.0000 1.0000
22.0700 840.0000 1.0000
22.0800 814.0000 1.0000
22.0900 795.0000 1.0000
22.1000 793.0000 1.0000
22.1100 797.0000 1.0000
22.1200 817.0000 1.0000
22.1300 763.0000 1.0000
22.1400 802.0000 1.0000
22.1500 771.0000 1.0000
22.1600 801.0000 1.0000
22.1700 791.0000 1.0000
22.1800 750.0000 1.0000
22.1900 786.0000 1.0000
22.2000 779.0000 1.0000
22.2100 783.0000 1.0000
22.2200 790.0000 1.0000
22.2300 799.0000 1.0000
22.2400 765.0000 1.0000
22.2500 727.0000 1.0000
22.2600 811.0000 1.0000
22.2700 822.0000 1.0000
22.2800 817.0000 1.0000
22.2900 776.0000 1.0000
22.3000 766.0000 1.0000
22.3100 796.0000 1.0000
22.3200 785.0000 1.0000
22.3300 771.0000 1.0000
22.3400 812.0000 1.0000
22.3500 784.0000 1.0000
22.3600 765.0000 1.0000
22.3700 780.0000 1.0000
22.3800 778.0000 1.0000
22.3900 811.0000 1.0000
22.4000 831.0000 1.0000
22.4100 786.0000 1.0000
22.4200 756.0000 1.0000
22.4300 750.0000 1.0000
22.4400 792.0000 1.0000
22.4500 784.0000 1.0000
22.4600 776.0000 1.0000
22.4700 781.0000 1.0000
22.4800 809.0000 1.0000
22.4900 814.0000 1.0000
22.5000 794.0000 1.0000
22.5100 776.0000 1.0000
22.5200 815.0000 1.0000
22.5300 827.0000 1.0000
22.5400 795.0000 1.0000
22.5500 784.0000 1.0000
22.5600 766.0000 1.0000
22.5700 780.0000 1.0000
22.5800 752.0000 1.0000
22.5900 790.0000 1.0000
22.6000 768.0000 1.0000
22.6100 775.0000 1.0000
22.6200 781.0000 1.0000
22.6300 768.0000 1.0000
22.6400 750.0000 1.0000
22.6500 774.0000 1.0000
22.6600 785.0000 1.0000
22.6700 803.0000 1.0000
22.6800 791.0000 1.0000
22.6900 826.0000 1.0000
22.7000 768.0000 1.0000
22.7100 712.0000 1.0000
22.7200 751.0000 1.0000
22.7300 777.0000 1.0000
22.7400 759.0000 1.0000
22.7500 786.0000 1.0000
22.7600 734.0000 1.0000
22.7700 748.0000 1.0000
22.7800 801.0000 1.0000
22.7900 789.0000 1.0000
22.8000 773.0000 1.0000
22.8100 832.0000 1.0000
22.8200 771.0000 1.0000
22.8300 809.0000 1.0000
22.8400 767.0000 1.0000
22.8500 794.0000 1.0000
22.8600 768.0000 1.0000
22.8700 803.0000 1.0000
22.8800 798.0000 1.0000
22.8900 749.0000 1.0000
22.9000 741.0000 1.0000
22.9100 779.0000 1.0000
22.9200 778.0000 1.0000
22.9300 776.0000 1.0000
22.9400 750.0000 1.0000
22.9500 768.0000 1.0000
22.9600 767.0000 1.0000
22.9700 765.0000 1.0000
22.9800 787.0000 1.0000
22.9900 740.0000 1.0000
23.0000 748.0000 1.0000
23.0100 748.0000 1.0000
23.0200 767.0000 1.0000
23.0300 793.0000 1.0000
23.0400 781.0000 1.0000
23.0500 758.0000 1.0000
23.0600 752.0000 1.0000
23.0700 789.0000 1.0000
23.0800 842.0000 1.0000
23.0900 781.0000 1.0000
23.1000 811.0000 1.0000
23.1100 751.0000 1.0000
23.1200 796.0000 1.0000
23.1300 808.0000 1.0000
23.1400 781.0000 1.0000
23.1500 757.0000 1.0000
23.1600 794.0000 1.0000
23.1700 798.0000 1.0000
23.1800 790.0000 1.0000
23.1900 793.0000 1.0000
23.2000 756.0000 1.0000
23.2100 786.0000 1.0000
23.2200 772.0000 1.0000
23.2300 773.0000 1.0000
23.2400 751.0000 1.0000
23.2500 807.0000 1.0000
23.2600 721.0000 1.0000
23.2700 756.0000 1.0000
23.2800 799.0000 1.0000
23.2900 816.0000 1.0000
23.3000 776.0000 1.0000
23.3100 771.0000 1.0000
23.3200 770.0000 1.0000
23.3300 772.0000 1.0000
23.3400 796.0000 1.0000
23.3500 764.0000 1.0000
23.3600 823.0000 1.0000
23.3700 778.0000 1.0000
23.3800 723.0000 1.0000
23.3900 754.0000 1.0000
23.4000 751.0000 1.0000
23.4100 743.0000 1.0000
23.4200 772.0000 1.0000
23.4300 825.0000 1.0000
23.4400 796.0000 1.0000
23.4500 759.0000 1.0000
23.4600 790.0000 1.0000
23.4700 765.0000 1.0000
23.4800 781.0000 1.0000
23.4900 808.0000 1.0000
23.5000 798.0000 1.0000
23.5100 757.0000 1.0000
23.5200 754.0000 1.0000
23.5300 750.0000 1.0000
23.5400 799.0000 1.0000
23.5500 819.0000 1.0000
23.5600 776.0000 1.0000
23.5700 760.0000 1.0000
23.5800 781.0000 1.0000
23.5900 764.0000 1.0000
23.6000 753.0000 1.0000
23.6100 784.0000 1.0000
23.6200 834.0000 1.0000
23.6300 778.0000 1.0000
23.6400 746.0000 1.0000
23.6500 790.0000 1.0000
23.6600 763.0000 1.0000
23.6700 736.0000 1.0000
23.6800 790.0000 1.0000
23.6900 796.0000 1.0000
23.7000 755.0000 1.0000
23.7100 765.0000 1.0000
23.7200 764.0000 1.0000
23.7300 780.0000 1.0000
23.7400 787.0000 1.0000
23.7500 780.0000 1.0000
23.7600 737.0000 1.0000
23.7700 787.0000 1.0000
23.7800 736.0000 1.0000
23.7900 763.0000 1.0000
23.8000 790.0000 1.0000
23.8100 816.0000 1.0000
23.8200 797.0000 1.0000
23.8300 785.0000 1.0000
23.8400 804.0000 1.0000
23.8500 775.0000 1.0000
23.8600 762.0000 1.0000
23.8700 803.0000 1.0000
23.8800 754.0000 1.0000
23.8900 777.0000 1.0000
23.9000 801.0000 1.0000
23.9100 845.0000 1.0000
23.9200 757.0000 1.0000
23.9300 795.0000 1.0000
23.9400 764.0000 1.0000
23.9500 784.0000 1.0000
23.9600 789.0000 1.0000
23.9700 783.0000 1.0000
23.9800 778.0000 1.0000
23.9900 742.0000 1.0000
24.0000 807.0000 1.0000
24.0100 796.0000 1.0000
24.0200 816.0000 1.0000
24.0300 807.0000 1.0000
24.0400 775.0000 1.0000
24.0500 804.0000 1.0000
24.0600 809.0000 1.0000
24.0700 798.0000 1.0000
24.0800 787.0000 1.0000
24.0900 794.0000 1.0000
24.1000 781.0000 1.0000
24.1100 821.0000 1.0000
24.1200 761.0000 1.0000
24.1300 814.0000 1.0000
24.1400 792.0000 1.0000
24.1500 814.0000 1.0000
24.1600 802.0000 1.0000
24.1700 794.0000 1.0000
24.1800 767.0000 1.0000
24.1900 778.0000 1.0000
24.2000 752.0000 1.0000
24.2100 773.0000 1.0000
24.2200 790.0000 1.0000
24.2300 729.0000 1.0000
24.2400 741.0000 1.0000
24.2500 748.0000 1.0000
24.2600 785.0000 1.0000
24.2700 756.0000 1.0000
24.2800 776.0000 1.0000
24.2900 798.0000 1.0000
24.3000 798.0000 1.0000
24.3100 746.0000 1.0000
24.3200 757.0000 1.0000
24.3300 747.0000 1.0000
24.3400 782.0000 1.0000
24.3500 781.0000 1.0000
24.3600 796.0000 1.0000
24.3700 791.0000 1.0000
24.3800 779.0000 1.0000
24.3900 772.0000 1.0000
24.4000 755.0000 1.0000
24.4100 769.0000 1.0000
24.4200 746.0000 1.0000
24.4300 758.0000 1.0000
24.4400 763.0000 1.0000
24.4500 765.0000 1.0000
24.4600 760.0000 1.0000
24.4700 788.0000 1.0000
24.4800 754.0000 1.0000
24.4900 744.0000 1.0000
24.5000 772.0000 1.0000
24.5100 715.0000 1.0000
24.5200 734.0000 1.0000
24.5300 785.0000 1.0000
24.5400 761.0000 1.0000
24.5500 807.0000 1.0000
24.5600 765.0000 1.0000
24.5700 766.0000 1.0000
24.5800 763.0000 1.0000
24.5900 774.0000 1.0000
24.6000 751.0000 1.0000
24.6100 742.0000 1.0000
24.6200 756.0000 1.0000
24.6300 751.0000 1.0000
24.6400 777.0000 1.0000
24.6500 754.0000 1.0000
24.6600 757.0000 1.0000
24.6700 759.0000 1.0000
24.6800 751.0000 1.0000
24.6900 763.0000 1.0000
24.7000 746.0000 1.0000
24.7100 722.0000 1.0000
24.7200 716.0000 1.0000
24.7300 760.0000 1.0000
24.7400 732.0000 1.0000
24.7500 741.0000 1.0000
24.7600 814.0000 1.0000
24.7700 782.0000 1.0000
24.7800 747.0000 1.0000
24.7900 754.0000 1.0000
24.8000 721.0000 1.0000
24.8100 794.0000 1.0000
24.8200 698.0000 1.0000
24.8300 784.0000 1.0000
24.8400 784.0000 1.0000
24.8500 785.0000 1.0000
24.8600 773.0000 1.0000
24.8700 734.0000 1.0000
24.8800 734.0000 1.0000
24.8900 738.0000 1.0000
24.9000 729.0000 1.0000
24.9100 703.0000 1.0000
24.9200 707.0000 1.0000
24.9300 754.0000 1.0000
24.9400 781.0000 1.0000
24.9500 752.0000 1.0000
24.9600 740.0000 1.0000
24.9700 762.0000 1.0000
24.9800 767.0000 1.0000
24.9900 715.0000 1.0000
25.0000 774.0000 1.0000
25.0100 738.0000 1.0000
25.0200 769.0000 1.0000
25.0300 736.0000 1.0000
25.0400 735.0000 1.0000
25.0500 735.0000 1.0000
25.0600 749.0000 1.0000
25.0700 772.0000 1.0000
25.0800 738.0000 1.0000
25.0900 772.0000 1.0000
25.1000 775.0000 1.0000
25.1100 781.0000 1.0000
25.1200 756.0000 1.0000
25.1300 754.0000 1.0000
25.1400 776.0000 1.0000
25.1500 766.0000 1.0000
25.1600 775.0000 1.0000
25.1700 714.0000 1.0000
25.1800 731.0000 1.0000
25.1900 752.0000 1.0000
25.2000 742.0000 1.0000
25.2100 743.0000 1.0000
25.2200 739.0000 1.0000
25.2300 739.0000 1.0000
25.2400 768.0000 1.0000
25.2500 741.0000 1.0000
25.2600 750.0000 1.0000
25.2700 743.0000 1.0000
25.2800 758.0000 1.0000
25.2900 685.0000 1.0000
25.3000 728.0000 1.0000
25.3100 763.0000 1.0000
25.3200 753.0000 1.0000
25.3300 787.0000 1.0000
25.3400 746.0000 1.0000
25.3500 736.0000 1.0000
25.3600 706.0000 1.0000
25.3700 768.0000 1.0000
25.3800 774.0000 1.0000
25.3900 734.0000 1.0000
25.4000 758.0000 1.0000
25.4100 742.0000 1.0000
25.4200 722.0000 1.0000
25.4300 735.0000 1.0000
25.4400 774.0000 1.0000
25.4500 781.0000 1.0000
25.4600 751.0000 1.0000
25.4700 808.0000 1.0000
25.4800 777.0000 1.0000
25.4900 771.0000 1.0000
25.5000 764.0000 1.0000
25.5100 777.0000 1.0000
25.5200 780.0000 1.0000
25.5300 770.0000 1.0000
25.5400 782.0000 1.0000
25.5500 762.0000 1.0000
25.5600 781.0000 1.0000
25.5700 742.0000 1.0000
25.5800 750.0000 1.0000
25.5900 750.0000 1.0000
25.6000 751.0000 1.0000
25.6100 757.0000 1.0000
25.6200 745.0000 1.0000
25.6300 710.0000 1.0000
25.6400 787.0000 1.0000
25.6500 804.0000 1.0000
25.6600 769.0000 1.0000
25.6700 742.0000 1.0000
25.6800 771.0000 1.0000
25.6900 773.0000 1.0000
25.7000 744.0000 1.0000
25.7100 761.0000 1.0000
25.7200 787.0000 1.0000
25.7300 763.0000 1.0000
25.7400 760.0000 1.0000
25.7500 787.0000 1.0000
25.7600 767.0000 1.0000
25.7700 756.0000 1.0000
25.7800 790.0000 1.0000
25.7900 760.0000 1.0000
25.8000 765.0000 1.0000
25.8100 774.0000 1.0000
25.8200 794.0000 1.0000
25.8300 776.0000 1.0000
25.8400 795.0000 1.0000
25.8500 798.0000 1.0000
25.8600 795.0000 1.0000
25.8700 758.0000 1.0000
25.8800 774.0000 1.0000
25.8900 758.0000 1.0000
25.9000 802.0000 1.0000
25.9100 796.0000 1.0000
25.9200 792.0000 1.0000
25.9300 778.0000 1.0000
25.9400 757.0000 1.0000
25.9500 744.0000 1.0000
25.9600 776.0000 1.0000
25.9700 823.0000 1.0000
25.9800 804.0000 1.0000
25.9900 805.0000 1.0000
26.0000 806.0000 1.0000
26.0100 850.0000 1.0000
26.0200 800.0000 1.0000
26.0300 835.0000 1.0000
26.0400 808.0000 1.0000
26.0500 845.0000 1.0000
26.0600 876.0000 1.0000
26.0700 875.0000 1.0000
26.0800 827.0000 1.0000
26.0900 892.0000 1.0000
26.1000 878.0000 1.0000
26.1100 886.0000 1.0000
26.1200 863.0000 1.0000
26.1300 865.0000 1.0000
26.1400 899.0000 1.0000
26.1500 922.0000 1.0000
26.1600 972.0000 1.0000
26.1700 956.0000 1.0000
26.1800 940.0000 1.0000
26.1900 1017.0000 1.0000
26.2000 980.0000 1.0000
26.2100 1027.0000 1.0000
26.2200 1083.0000 1.0000
26.2300 1091.0000 1.0000
26.2400 1148.0000 1.0000
26.2500 1142.0000 1.0000
26.2600 1156.0000 1.0000
26.2700 1199.0000 1.0000
26.2800 1312.0000 1.0000
26.2900 1310.0000 1.0000
26.3000 1384.0000 1.0000
26.3100 1403.0000 1.0000
26.3200 1536.0000 1.0000
26.3300 1572.0000 1.0000
26.3400 1593.0000 1.0000
26.3500 1724.0000 1.0000
26.3600 1777.0000 1.0000
26.3700 1882.0000 1.0000
26.3800 2016.0000 1.0000
26.3900 2130.0000 1.0000
26.4000 2197.0000 1.0000
26.4100 2337.0000 1.0000
26.4200 2481.0000 1.0000
26.4300 2424.0000 1.0000
26.4400 2574.0000 1.0000
26.4500 2600.0000 1.0000
26.4600 2586.0000 1.0000
26.4700 2608.0000 1.0000
26.4800 2564.0000 1.0000
26.4900 2523.0000 1.0000
26.5000 2425.0000 1.0000
26.5100 2304.0000 1.0000
26.5200 2320.0000 1.0000
26.5300 2168.0000 1.0000
26.5400 2102.0000 1.0000
26.5500 1991.0000 1.0000
26.5600 1852.0000 1.0000
26.5700 1832.0000 1.0000
26.5800 1608.0000 1.0000
26.5900 1541.0000 1.0000
26.6000 1546.0000 1.0000
26.6100 1515.0000 1.0000
26.6200 1385.0000 1.0000
26.6300 1296.0000 1.0000
26.6400 1253.0000 1.0000
26.6500 1221.0000 1.0000
26.6600 1195.0000 1.0000
26.6700 1113.0000 1.0000
26.6800 1133.0000 1.0000
26.6900 1082.0000 1.0000
26.7000 1133.0000 1.0000
26.7100 1035.0000 1.0000
26.7200 976.0000 1.0000
26.7300 985.0000 1.0000
26.7400 992.0000 1.0000
26.7500 953.0000 1.0000
26.7600 959.0000 1.0000
26.7700 953.0000 1.0000
26.7800 936.0000 1.0000
26.7900 887.0000 1.0000
26.8000 861.0000 1.0000
26.8100 870.0000 1.0000
26.8200 841.0000 1.0000
26.8300 843.0000 1.0000
26.8400 864.0000 1.0000
26.8500 882.0000 1.0000
26.8600 767.0000 1.0000
26.8700 850.0000 1.0000
26.8800 779.0000 1.0000
26.8900 821.0000 1.0000
26.9000 842.0000 1.0000
26.9100 811.0000 1.0000
26.9200 813.0000 1.0000
26.9300 813.0000 1.0000
26.9400 815.0000 1.0000
26.9500 765.0000 1.0000
26.9600 804.0000 1.0000
26.9700 813.0000 1.0000
26.9800 767.0000 1.0000
26.9900 730.0000 1.0000
27.0000 805.0000 1.0000
27.0100 767.0000 1.0000
27.0200 775.0000 1.0000
27.0300 752.0000 1.0000
27.0400 737.0000 1.0000
27.0500 784.0000 1.0000
27.0600 732.0000 1.0000
27.0700 721.0000 1.0000
27.0800 746.0000 1.0000
27.0900 744.0000 1.0000
27.1000 748.0000 1.0000
27.1100 743.0000 1.0000
27.1200 735.0000 1.0000
27.1300 772.0000 1.0000
27.1400 733.0000 1.0000
27.1500 705.0000 1.0000
27.1600 721.0000 1.0000
27.1700 704.0000 1.0000
27.1800 755.0000 1.0000
27.1900 708.0000 1.0000
27.2000 749.0000 1.0000
27.2100 716.0000 1.0000
27.2200 755.0000 1.0000
27.2300 665.0000 1.0000
27.2400 711.0000 1.0000
27.2500 716.0000 1.0000
27.2600 737.0000 1.0000
27.2700 703.0000 1.0000
27.2800 693.0000 1.0000
27.2900 678.0000 1.0000
27.3000 689.0000 1.0000
27.3100 720.0000 1.0000
27.3200 740.0000 1.0000
27.3300 707.0000 1.0000
27.3400 733.0000 1.0000
27.3500 720.0000 1.0000
27.3600 661.0000 1.0000
27.3700 701.0000 1.0000
27.3800 699.0000 1.0000
27.3900 691.0000 1.0000
27.4000 710.0000 1.0000
27.4100 694.0000 1.0000
27.4200 669.0000 1.0000
27.4300 722.0000 1.0000
27.4400 701.0000 1.0000
27.4500 724.0000 1.0000
27.4600 696.0000 1.0000
27.4700 690.0000 1.0000
27.4800 707.0000 1.0000
27.4900 687.0000 1.0000
27.5000 687.0000 1.0000
27.5100 716.0000 1.0000
27.5200 699.0000 1.0000
27.5300 664.0000 1.0000
27.5400 734.0000 1.0000
27.5500 658.0000 1.0000
27.5600 715.0000 1.0000
27.5700 689.0000 1.0000
27.5800 640.0000 1.0000
27.5900 656.0000 1.0000
27.6000 651.0000 1.0000
27.6100 656.0000 1.0000
27.6200 706.0000 1.0000
27.6300 676.0000 1.0000
27.6400 677.0000 1.0000
27.6500 708.0000 1.0000
27.6600 698.0000 1.0000
27.6700 700.0000 1.0000
27.6800 716.0000 1.0000
27.6900 709.0000 1.0000
27.7000 673.0000 1.0000
27.7100 644.0000 1.0000
27.7200 685.0000 1.0000
27.7300 699.0000 1.0000
27.7400 681.0000 1.0000
27.7500 706.0000 1.0000
27.7600 667.0000 1.0000
27.7700 652.0000 1.0000
27.7800 690.0000 1.0000
27.7900 633.0000 1.0000
27.8000 652.0000 1.0000
27.8100 689.0000 1.0000
27.8200 716.0000 1.0000
27.8300 592.0000 1.0000
27.8400 666.0000 1.0000
27.8500 652.0000 1.0000
27.8600 641.0000 1.0000
27.8700 677.0000 1.0000
27.8800 679.0000 1.0000
27.8900 690.0000 1.0000
27.9000 666.0000 1.0000
27.9100 648.0000 1.0000
27.9200 656.0000 1.0000
27.9300 629.0000 1.0000
27.9400 646.0000 1.0000
27.9500 637.0000 1.0000
27.9600 654.0000 1.0000
27.9700 676.0000 1.0000
27.9800 662.0000 1.0000
27.9900 665.0000 1.0000
28.0000 698.0000 1.0000
28.0100 688.0000 1.0000
28.0200 664.0000 1.0000
28.0300 682.0000 1.0000
28.0400 649.0000 1.0000
28.0500 668.0000 1.0000
28.0600 691.0000 1.0000
28.0700 643.0000 1.0000
28.0800 650.0000 1.0000
28.0900 661.0000 1.0000
28.1000 672.0000 1.0000
28.1100 639.0000 1.0000
28.1200 663.0000 1.0000
28.1300 654.0000 1.0000
28.1400 690.0000 1.0000
28.1500 703.0000 1.0000
28.1600 668.0000 1.0000
28.1700 666.0000 1.0000
28.1800 698.0000 1.0000
28.1900 659.0000 1.0000
28.2000 706.0000 1.0000
28.2100 702.0000 1.0000
28.2200 676.0000 1.0000
28.2300 632.0000 1.0000
28.2400 678.0000 1.0000
28.2500 653.0000 1.0000
28.2600 660.0000 1.0000
28.2700 711.0000 1.0000
28.2800 730.0000 1.0000
28.2900 666.0000 1.0000
28.3000 687.0000 1.0000
28.3100 688.0000 1.0000
28.3200 736.0000 1.0000
28.3300 669.0000 1.0000
28.3400 683.0000 1.0000
28.3500 718.0000 1.0000
28.3600 685.0000 1.0000
28.3700 680.0000 1.0000
28.3800 661.0000 1.0000
28.3900 656.0000 1.0000
28.4000 676.0000 1.0000
28.4100 699.0000 1.0000
28.4200 699.0000 1.0000
28.4300 698.0000 1.0000
28.4400 693.0000 1.0000
28.4500 680.0000 1.0000
28.4600 693.0000 1.0000
28.4700 641.0000 1.0000
28.4800 601.0000 1.0000
28.4900 641.0000 1.0000
28.5000 645.0000 1.0000
28.5100 663.0000 1.0000
28.5200 656.0000 1.0000
28.5300 676.0000 1.0000
28.5400 624.0000 1.0000
28.5500 634.0000 1.0000
28.5600 631.0000 1.0000
28.5700 652.0000 1.0000
28.5800 657.0000 1.0000
28.5900 647.0000 1.0000
28.6000 628.0000 1.0000
28.6100 605.0000 1.0000
28.6200 666.0000 1.0000
28.6300 645.0000 1.0000
28.6400 646.0000 1.0000
28.6500 672.0000 1.0000
28.6600 646.0000 1.0000
28.6700 656.0000 1.0000
28.6800 625.0000 1.0000
28.6900 647.0000 1.0000
28.7000 651.0000 1.0000
28.7100 639.0000 1.0000
28.7200 570.0000 1.0000
28.7300 661.0000 1.0000
28.7400 645.0000 1.0000
28.7500 695.0000 1.0000
28.7600 655.0000 1.0000
28.7700 621.0000 1.0000
28.7800 654.0000 1.0000
28.7900 684.0000 1.0000
28.8000 651.0000 1.0000
28.8100 677.0000 1.0000
28.8200 636.0000 1.0000
28.8300 603.0000 1.0000
28.8400 681.0000 1.0000
28.8500 650.0000 1.0000
28.8600 632.0000 1.0000
28.8700 641.0000 1.0000
28.8800 658.0000 1.0000
28.8900 612.0000 1.0000
28.9000 585.0000 1.0000
28.9100 615.0000 1.0000
28.9200 648.0000 1.0000
28.9300 619.0000 1.0000
28.9400 664.0000 1.0000
28.9500 620.0000 1.0000
28.9600 649.0000 1.0000
28.9700 639.0000 1.0000
28.9800 613.0000 1.0000
28.9900 608.0000 1.0000
29.0000 636.0000 1.0000
29.0100 634.0000 1.0000
29.0200 648.0000 1.0000
29.0300 648.0000 1.0000
29.0400 592.0000 1.0000
29.0500 581.0000 1.0000
29.0600 654.0000 1.0000
29.0700 630.0000 1.0000
29.0800 614.0000 1.0000
29.0900 633.0000 1.0000
29.1000 602.0000 1.0000
29.1100 632.0000 1.0000
29.1200 606.0000 1.0000
29.1300 634.0000 1.0000
29.1400 654.0000 1.0000
29.1500 632.0000 1.0000
29.1600 623.0000 1.0000
29.1700 629.0000 1.0000
29.1800 623.0000 1.0000
29.1900 609.0000 1.0000
29.2000 660.0000 1.0000
29.2100 636.0000 1.0000
29.2200 628.0000 1.0000
29.2300 645.0000 1.0000
29.2400 626.0000 1.0000
29.2500 645.0000 1.0000
29.2600 634.0000 1.0000
29.2700 623.0000 1.0000
29.2800 627.0000 1.0000
29.2900 636.0000 1.0000
29.3000 592.0000 1.0000
29.3100 628.0000 1.0000
29.3200 623.0000 1.0000
29.3300 578.0000 1.0000
29.3400 620.0000 1.0000
29.3500 599.0000 1.0000
29.3600 611.0000 1.0000
29.3700 585.0000 1.0000
29.3800 614.0000 1.0000
29.3900 614.0000 1.0000
29.4000 623.0000 1.0000
29.4100 603.0000 1.0000
29.4200 646.0000 1.0000
29.4300 614.0000 1.0000
29.4400 608.0000 1.0000
29.4500 604.0000 1.0000
29.4600 590.0000 1.0000
29.4700 614.0000 1.0000
29.4800 592.0000 1.0000
29.4900 553.0000 1.0000
29.5000 615.0000 1.0000
29.5100 610.0000 1.0000
29.5200 621.0000 1.0000
29.5300 625.0000 1.0000
29.5400 585.0000 1.0000
29.5500 593.0000 1.0000
29.5600 594.0000 1.0000
29.5700 604.0000 1.0000
29.5800 616.0000 1.0000
29.5900 628.0000 1.0000
29.6000 601.0000 1.0000
29.6100 591.0000 1.0000
29.6200 642.0000 1.0000
29.6300 629.0000 1.0000
29.6400 619.0000 1.0000
29.6500 612.0000 1.0000
29.6600 589.0000 1.0000
29.6700 582.0000 1.0000
29.6800 616.0000 1.0000
29.6900 618.0000 1.0000
29.7000 582.0000 1.0000
29.7100 615.0000 1.0000
29.7200 588.0000 1.0000
29.7300 606.0000 1.0000
29.7400 588.0000 1.0000
29.7500 600.0000 1.0000
29.7600 609.0000 1.0000
29.7700 591.0000 1.0000
29.7800 603.0000 1.0000
29.7900 580.0000 1.0000
29.8000 587.0000 1.0000
29.8100 637.0000 1.0000
29.8200 616.0000 1.0000
29.8300 606.0000 1.0000
29.8400 601.0000 1.0000
29.8500 613.0000 1.0000
29.8600 600.0000 1.0000
29.8700 629.0000 1.0000
29.8800 615.0000 1.0000
29.8900 597.0000 1.0000
29.9000 597.0000 1.0000
29.9100 603.0000 1.0000
29.9200 618.0000 1.0000
29.9300 617.0000 1.0000
29.9400 611.0000 1.0000
29.9500 631.0000 1.0000
29.9600 585.0000 1.0000
29.9700 571.0000 1.0000
29.9800 596.0000 1.0000
29.9900 663.0000 1.0000
30.0000 664.0000 1.0000
30.0100 611.0000 1.0000
30.0200 550.0000 1.0000
30.0300 587.0000 1.0000
30.0400 595.0000 1.0000
30.0500 596.0000 1.0000
30.0600 592.0000 1.0000
30.0700 610.0000 1.0000
30.0800 624.0000 1.0000
30.0900 615.0000 1.0000
30.1000 586.0000 1.0000
30.1100 611.0000 1.0000
30.1200 578.0000 1.0000
30.1300 664.0000 1.0000
30.1400 600.0000 1.0000
30.1500 571.0000 1.0000
30.1600 628.0000 1.0000
30.1700 598.0000 1.0000
30.1800 612.0000 1.0000
30.1900 573.0000 1.0000
30.2000 596.0000 1.0000
30.2100 581.0000 1.0000
30.2200 582.0000 1.0000
30.2300 572.0000 1.0000
30.2400 589.0000 1.0000
30.2500 614.0000 1.0000
30.2600 593.0000 1.0000
30.2700 576.0000 1.0000
30.2800 615.0000 1.0000
30.2900 582.0000 1.0000
30.3000 616.0000 1.0000
30.3100 622.0000 1.0000
30.3200 572.0000 1.0000
30.3300 639.0000 1.0000
30.3400 631.0000 1.0000
30.3500 596.0000 1.0000
30.3600 601.0000 1.0000
30.3700 633.0000 1.0000
30.3800 603.0000 1.0000
30.3900 630.0000 1.0000
30.4000 576.0000 1.0000
30.4100 579.0000 1.0000
30.4200 571.0000 1.0000
30.4300 597.0000 1.0000
30.4400 586.0000 1.0000
30.4500 583.0000 1.0000
30.4600 607.0000 1.0000
30.4700 616.0000 1.0000
30.4800 580.0000 1.0000
30.4900 575.0000 1.0000
30.5000 624.0000 1.0000
30.5100 568.0000 1.0000
30.5200 574.0000 1.0000
30.5300 591.0000 1.0000
30.5400 604.0000 1.0000
30.5500 583.0000 1.0000
30.5600 603.0000 1.0000
30.5700 602.0000 1.0000
30.5800 599.0000 1.0000
30.5900 589.0000 1.0000
30.6000 586.0000 1.0000
30.6100 591.0000 1.0000
30.6200 589.0000 1.0000
30.6300 584.0000 1.0000
30.6400 574.0000 1.0000
30.6500 600.0000 1.0000
30.6600 601.0000 1.0000
30.6700 551.0000 1.0000
30.6800 617.0000 1.0000
30.6900 549.0000 1.0000
30.7000 577.0000 1.0000
30.7100 551.0000 1.0000
30.7200 565.0000 1.0000
30.7300 613.0000 1.0000
30.7400 591.0000 1.0000
30.7500 566.0000 1.0000
30.7600 613.0000 1.0000
30.7700 581.0000 1.0000
30.7800 624.0000 1.0000
30.7900 599.0000 1.0000
30.8000 563.0000 1.0000
30.8100 563.0000 1.0000
30.8200 519.0000 1.0000
30.8300 590.0000 1.0000
30.8400 596.0000 1.0000
30.8500 544.0000 1.0000
30.8600 558.0000 1.0000
30.8700 591.0000 1.0000
30.8800 569.0000 1.0000
30.8900 555.0000 1.0000
30.9000 580.0000 1.0000
30.9100 588.0000 1.0000
30.9200 590.0000 1.0000
30.9300 590.0000 1.0000
30.9400 575.0000 1.0000
30.9500 561.0000 1.0000
30.9600 571.0000 1.0000
30.9700 588.0000 1.0000
30.9800 568.0000 1.0000
30.9900 600.0000 1.0000
31.0000 592.0000 1.0000
31.0100 604.0000 1.0000
31.0200 626.0000 1.0000
31.0300 599.0000 1.0000
31.0400 557.0000 1.0000
31.0500 582.0000 1.0000
31.0600 566.0000 1.0000
31.0700 593.0000 1.0000
31.0800 609.0000 1.0000
31.0900 616.0000 1.0000
31.1000 611.0000 1.0000
31.1100 600.0000 1.0000
31.1200 609.0000 1.0000
31.1300 541.0000 1.0000
31.1400 551.0000 1.0000
31.1500 626.0000 1.0000
31.1600 597.0000 1.0000
31.1700 635.0000 1.0000
31.1800 609.0000 1.0000
31.1900 588.0000 1.0000
31.2000 582.0000 1.0000
31.2100 603.0000 1.0000
31.2200 583.0000 1.0000
31.2300 561.0000 1.0000
31.2400 574.0000 1.0000
31.2500 597.0000 1.0000
31.2600 599.0000 1.0000
31.2700 574.0000 1.0000
31.2800 571.0000 1.0000
31.2900 541.0000 1.0000
31.3000 572.0000 1.0000
31.3100 595.0000 1.0000
31.3200 563.0000 1.0000
31.3300 583.0000 1.0000
31.3400 589.0000 1.0000
31.3500 564.0000 1.0000
31.3600 547.0000 1.0000
31.3700 585.0000 1.0000
31.3800 580.0000 1.0000
31.3900 604.0000 1.0000
31.4000 594.0000 1.0000
31.4100 591.0000 1.0000
31.4200 579.0000 1.0000
31.4300 577.0000 1.0000
31.4400 578.0000 1.0000
31.4500 588.0000 1.0000
31.4600 554.0000 1.0000
31.4700 615.0000 1.0000
31.4800 578.0000 1.0000
31.4900 591.0000 1.0000
31.5000 557.0000 1.0000
31.5100 580.0000 1.0000
31.5200 580.0000 1.0000
31.5300 572.0000 1.0000
31.5400 573.0000 1.0000
31.5500 620.0000 1.0000
31.5600 590.0000 1.0000
31.5700 614.0000 1.0000
31.5800 658.0000 1.0000
31.5900 629.0000 1.0000
31.6000 631.0000 1.0000
31.6100 652.0000 1.0000
31.6200 599.0000 1.0000
31.6300 627.0000 1.0000
31.6400 594.0000 1.0000
31.6500 661.0000 1.0000
31.6600 649.0000 1.0000
31.6700 588.0000 1.0000
31.6800 638.0000 1.0000
31.6900 632.0000 1.0000
31.7000 626.0000 1.0000
31.7100 610.0000 1.0000
31.7200 571.0000 1.0000
31.7300 609.0000 1.0000
31.7400 595.0000 1.0000
31.7500 567.0000 1.0000
31.7600 572.0000 1.0000
31.7700 580.0000 1.0000
31.7800 582.0000 1.0000
31.7900 565.0000 1.0000
31.8000 549.0000 1.0000
31.8100 558.0000 1.0000
31.8200 540.0000 1.0000
31.8300 546.0000 1.0000
31.8400 586.0000 1.0000
31.8500 560.0000 1.0000
31.8600 544.0000 1.0000
31.8700 506.0000 1.0000
31.8800 554.0000 1.0000
31.8900 556.0000 1.0000
31.9000 552.0000 1.0000
31.9100 551.0000 1.0000
31.9200 569.0000 1.0000
31.9300 559.0000 1.0000
31.9400 570.0000 1.0000
31.9500 543.0000 1.0000
31.9600 559.0000 1.0000
31.9700 552.0000 1.0000
31.9800 544.0000 1.0000
31.9900 586.0000 1.0000
32.0000 532.0000 1.0000
32.0100 565.0000 1.0000
32.0200 530.0000 1.0000
32.0300 527.0000 1.0000
32.0400 560.0000 1.0000
32.0500 557.0000 1.0000
32.0600 546.0000 1.0000
32.0700 575.0000 1.0000
32.0800 540.0000 1.0000
32.0900 527.0000 1.0000
32.1000 535.0000 1.0000
32.1100 525.0000 1.0000
32.1200 522.0000 1.0000
32.1300 574.0000 1.0000
32.1400 599.0000 1.0000
32.1500 508.0000 1.0000
32.1600 508.0000 1.0000
32.1700 531.0000 1.0000
32.1800 534.0000 1.0000
32.1900 544.0000 1.0000
32.2000 546.0000 1.0000
32.2100 560.0000 1.0000
32.2200 539.0000 1.0000
32.2300 568.0000 1.0000
32.2400 540.0000 1.0000
32.2500 513.0000 1.0000
32.2600 576.0000 1.0000
32.2700 556.0000 1.0000
32.2800 539.0000 1.0000
32.2900 547.0000 1.0000
32.3000 569.0000 1.0000
32.3100 525.0000 1.0000
32.3200 541.0000 1.0000
32.3300 518.0000 1.0000
32.3400 503.0000 1.0000
32.3500 534.0000 1.0000
32.3600 559.0000 1.0000
32.3700 575.0000 1.0000
32.3800 545.0000 1.0000
32.3900 544.0000 1.0000
32.4000 524.0000 1.0000
32.4100 488.0000 1.0000
32.4200 509.0000 1.0000
32.4300 563.0000 1.0000
32.4400 546.0000 1.0000
32.4500 561.0000 1.0000
32.4600 570.0000 1.0000
32.4700 563.0000 1.0000
32.4800 569.0000 1.0000
32.4900 553.0000 1.0000
32.5000 556.0000 1.0000
32.5100 554.0000 1.0000
32.5200 550.0000 1.0000
32.5300 515.0000 1.0000
32.5400 568.0000 1.0000
32.5500 560.0000 1.0000
32.5600 549.0000 1.0000
32.5700 509.0000 1.0000
32.5800 547.0000 1.0000
32.5900 535.0000 1.0000
32.6000 528.0000 1.0000
32.6100 521.0000 1.0000
32.6200 555.0000 1.0000
32.6300 559.0000 1.0000
32.6400 559.0000 1.0000
32.6500 540.0000 1.0000
32.6600 549.0000 1.0000
32.6700 565.0000 1.0000
32.6800 561.0000 1.0000
32.6900 508.0000 1.0000
32.7000 515.0000 1.0000
32.7100 518.0000 1.0000
32.7200 541.0000 1.0000
32.7300 549.0000 1.0000
32.7400 509.0000 1.0000
32.7500 517.0000 1.0000
32.7600 527.0000 1.0000
32.7700 565.0000 1.0000
32.7800 542.0000 1.0000
32.7900 554.0000 1.0000
32.8000 541.0000 1.0000
32.8100 543.0000 1.0000
32.8200 543.0000 1.0000
32.8300 570.0000 1.0000
32.8400 564.0000 1.0000
32.8500 494.0000 1.0000
32.8600 539.0000 1.0000
32.8700 528.0000 1.0000
32.8800 568.0000 1.0000
32.8900 533.0000 1.0000
32.9000 564.0000 1.0000
32.9100 542.0000 1.0000
32.9200 553.0000 1.0000
32.9300 542.0000 1.0000
32.9400 538.0000 1.0000
32.9500 564.0000 1.0000
32.9600 582.0000 1.0000
32.9700 553.0000 1.0000
32.9800 562.0000 1.0000
32.9900 570.0000 1.0000
33.0000 588.0000 1.0000
33.0100 597.0000 1.0000
33.0200 564.0000 1.0000
33.0300 561.0000 1.0000
33.0400 594.0000 1.0000
33.0500 573.0000 1.0000
33.0600 595.0000 1.0000
33.0700 588.0000 1.0000
33.0800 603.0000 1.0000
33.0900 614.0000 1.0000
33.1000 652.0000 1.0000
33.1100 626.0000 1.0000
33.1200 607.0000 1.0000
33.1300 611.0000 1.0000
33.1400 624.0000 1.0000
33.1500 649.0000 1.0000
33.1600 614.0000 1.0000
33.1700 595.0000 1.0000
33.1800 589.0000 1.0000
33.1900 606.0000 1.0000
33.2000 649.0000 1.0000
33.2100 612.0000 1.0000
33.2200 603.0000 1.0000
33.2300 579.0000 1.0000
33.2400 621.0000 1.0000
33.2500 598.0000 1.0000
33.2600 574.0000 1.0000
33.2700 609.0000 1.0000
33.2800 564.0000 1.0000
33.2900 570.0000 1.0000
33.3000 565.0000 1.0000
33.3100 617.0000 1.0000
33.3200 606.0000 1.0000
33.3300 615.0000 1.0000
33.3400 597.0000 1.0000
33.3500 620.0000 1.0000
33.3600 598.0000 1.0000
33.3700 619.0000 1.0000
33.3800 599.0000 1.0000
33.3900 690.0000 1.0000
33.4000 689.0000 1.0000
33.4100 685.0000 1.0000
33.4200 680.0000 1.0000
33.4300 682.0000 1.0000
33.4400 698.0000 1.0000
33.4500 696.0000 1.0000
33.4600 714.0000 1.0000
33.4700 752.0000 1.0000
33.4800 754.0000 1.0000
33.4900 733.0000 1.0000
33.5000 802.0000 1.0000
33.5100 820.0000 1.0000
33.5200 820.0000 1.0000
33.5300 855.0000 1.0000
33.5400 908.0000 1.0000
33.5500 897.0000 1.0000
33.5600 922.0000 1.0000
33.5700 965.0000 1.0000
33.5800 1033.0000 1.0000
33.5900 1118.0000 1.0000
33.6000 1178.0000 1.0000
33.6100 1248.0000 1.0000
33.6200 1215.0000 1.0000
33.6300 1274.0000 1.0000
33.6400 1294.0000 1.0000
33.6500 1313.0000 1.0000
33.6600 1365.0000 1.0000
33.6700 1341.0000 1.0000
33.6800 1311.0000 1.0000
33.6900 1310.0000 1.0000
33.7000 1313.0000 1.0000
33.7100 1238.0000 1.0000
33.7200 1231.0000 1.0000
33.7300 1231.0000 1.0000
33.7400 1177.0000 1.0000
33.7500 1124.0000 1.0000
33.7600 1105.0000 1.0000
33.7700 1100.0000 1.0000
33.7800 1019.0000 1.0000
33.7900 1022.0000 1.0000
33.8000 939.0000 1.0000
33.8100 916.0000 1.0000
33.8200 862.0000 1.0000
33.8300 817.0000 1.0000
33.8400 787.0000 1.0000
33.8500 760.0000 1.0000
33.8600 763.0000 1.0000
33.8700 797.0000 1.0000
33.8800 753.0000 1.0000
33.8900 697.0000 1.0000
33.9000 697.0000 1.0000
33.9100 661.0000 1.0000
33.9200 737.0000 1.0000
33.9300 685.0000 1.0000
33.9400 668.0000 1.0000
33.9500 609.0000 1.0000
33.9600 627.0000 1.0000
33.9700 643.0000 1.0000
33.9800 619.0000 1.0000
33.9900 612.0000 1.0000
34.0000 584.0000 1.0000
34.0100 572.0000 1.0000
34.0200 562.0000 1.0000
34.0300 579.0000 1.0000
34.0400 572.0000 1.0000
34.0500 568.0000 1.0000
34.0600 574.0000 1.0000
34.0700 583.0000 1.0000
34.0800 549.0000 1.0000
34.0900 524.0000 1.0000
34.1000 540.0000 1.0000
34.1100 529.0000 1.0000
34.1200 529.0000 1.0000
34.1300 544.0000 1.0000
34.1400 552.0000 1.0000
34.1500 550.0000 1.0000
34.1600 533.0000 1.0000
34.1700 515.0000 1.0000
34.1800 537.0000 1.0000
34.1900 539.0000 1.0000
34.2000 546.0000 1.0000
34.2100 539.0000 1.0000
34.2200 511.0000 1.0000
34.2300 519.0000 1.0000
34.2400 523.0000 1.0000
34.2500 509.0000 1.0000
34.2600 504.0000 1.0000
34.2700 535.0000 1.0000
34.2800 532.0000 1.0000
34.2900 532.0000 1.0000
34.3000 511.0000 1.0000
34.3100 506.0000 1.0000
34.3200 494.0000 1.0000
34.3300 485.0000 1.0000
34.3400 506.0000 1.0000
34.3500 525.0000 1.0000
34.3600 514.0000 1.0000
34.3700 480.0000 1.0000
34.3800 479.0000 1.0000
34.3900 498.0000 1.0000
34.4000 478.0000 1.0000
34.4100 481.0000 1.0000
34.4200 489.0000 1.0000
34.4300 546.0000 1.0000
34.4400 528.0000 1.0000
34.4500 503.0000 1.0000
34.4600 501.0000 1.0000
34.4700 488.0000 1.0000
34.4800 476.0000 1.0000
34.4900 497.0000 1.0000
34.5000 505.0000 1.0000
34.5100 504.0000 1.0000
34.5200 488.0000 1.0000
34.5300 464.0000 1.0000
34.5400 516.0000 1.0000
34.5500 446.0000 1.0000
34.5600 473.0000 1.0000
34.5700 494.0000 1.0000
34.5800 488.0000 1.0000
34.5900 497.0000 1.0000
34.6000 484.0000 1.0000
34.6100 490.0000 1.0000
34.6200 509.0000 1.0000
34.6300 479.0000 1.0000
34.6400 468.0000 1.0000
34.6500 483.0000 1.0000
34.6600 479.0000 1.0000
34.6700 478.0000 1.0000
34.6800 435.0000 1.0000
34.6900 468.0000 1.0000
34.7000 466.0000 1.0000
34.7100 506.0000 1.0000
34.7200 486.0000 1.0000
34.7300 481.0000 1.0000
34.7400 448.0000 1.0000
34.7500 474.0000 1.0000
34.7600 475.0000 1.0000
34.7700 443.0000 1.0000
34.7800 458.0000 1.0000
34.7900 466.0000 1.0000
34.8000 517.0000 1.0000
34.8100 466.0000 1.0000
34.8200 487.0000 1.0000
34.8300 427.0000 1.0000
34.8400 461.0000 1.0000
34.8500 476.0000 1.0000
34.8600 499.0000 1.0000
34.8700 501.0000 1.0000
34.8800 481.0000 1.0000
34.8900 480.0000 1.0000
34.9000 483.0000 1.0000
34.9100 472.0000 1.0000
34.9200 461.0000 1.0000
34.9300 460.0000 1.0000
34.9400 475.0000 1.0000
34.9500 490.0000 1.0000
34.9600 471.0000 1.0000
34.9700 423.0000 1.0000
34.9800 419.0000 1.0000
34.9900 460.0000 1.0000
35.0000 500.0000 1.0000
35.0100 500.0000 1.0000
35.0200 497.0000 1.0000
35.0300 480.0000 1.0000
35.0400 451.0000 1.0000
35.0500 433.0000 1.0000
35.0600 453.0000 1.0000
35.0700 470.0000 1.0000
35.0800 486.0000 1.0000
35.0900 460.0000 1.0000
35.1000 472.0000 1.0000
35.1100 493.0000 1.0000
35.1200 465.0000 1.0000
35.1300 442.0000 1.0000
35.1400 464.0000 1.0000
35.1500 466.0000 1.0000
35.1600 446.0000 1.0000
35.1700 436.0000 1.0000
35.1800 481.0000 1.0000
35.1900 478.0000 1.0000
35.2000 445.0000 1.0000
35.2100 463.0000 1.0000
35.2200 450.0000 1.0000
35.2300 454.0000 1.0000
35.2400 459.0000 1.0000
35.2500 506.0000 1.0000
35.2600 496.0000 1.0000
35.2700 492.0000 1.0000
35.2800 476.0000 1.0000
35.2900 455.0000 1.0000
35.3000 485.0000 1.0000
35.3100 477.0000 1.0000
35.3200 464.0000 1.0000
35.3300 478.0000 1.0000
35.3400 489.0000 1.0000
35.3500 493.0000 1.0000
35.3600 508.0000 1.0000
35.3700 510.0000 1.0000
35.3800 517.0000 1.0000
35.3900 531.0000 1.0000
35.4000 543.0000 1.0000
35.4100 553.0000 1.0000
35.4200 547.0000 1.0000
35.4300 534.0000 1.0000
35.4400 546.0000 1.0000
35.4500 561.0000 1.0000
35.4600 557.0000 1.0000
35.4700 603.0000 1.0000
35.4800 625.0000 1.0000
35.4900 651.0000 1.0000
35.5000 647.0000 1.0000
35.5100 668.0000 1.0000
35.5200 690.0000 1.0000
35.5300 786.0000 1.0000
35.5400 706.0000 1.0000
35.5500 792.0000 1.0000
35.5600 817.0000 1.0000
35.5700 848.0000 1.0000
35.5800 884.0000 1.0000
35.5900 889.0000 1.0000
35.6000 891.0000 1.0000
35.6100 876.0000 1.0000
35.6200 872.0000 1.0000
35.6300 830.0000 1.0000
35.6400 842.0000 1.0000
35.6500 734.0000 1.0000
35.6600 752.0000 1.0000
35.6700 750.0000 1.0000
35.6800 697.0000 1.0000
35.6900 724.0000 1.0000
35.7000 720.0000 1.0000
35.7100 652.0000 1.0000
35.7200 621.0000 1.0000
35.7300 621.0000 1.0000
35.7400 580.0000 1.0000
35.7500 564.0000 1.0000
35.7600 536.0000 1.0000
35.7700 509.0000 1.0000
35.7800 500.0000 1.0000
35.7900 501.0000 1.0000
35.8000 522.0000 1.0000
35.8100 514.0000 1.0000
35.8200 513.0000 1.0000
35.8300 464.0000 1.0000
35.8400 475.0000 1.0000
35.8500 452.0000 1.0000
35.8600 458.0000 1.0000
35.8700 462.0000 1.0000
35.8800 445.0000 1.0000
35.8900 444.0000 1.0000
35.9000 456.0000 1.0000
35.9100 409.0000 1.0000
35.9200 434.0000 1.0000
35.9300 456.0000 1.0000
35.9400 442.0000 1.0000
35.9500 465.0000 1.0000
35.9600 458.0000 1.0000
35.9700 401.0000 1.0000
35.9800 448.0000 1.0000
35.9900 428.0000 1.0000
36.0000 415.0000 1.0000
36.0100 427.0000 1.0000
36.0200 400.0000 1.0000
36.0300 412.0000 1.0000
36.0400 412.0000 1.0000
36.0500 435.0000 1.0000
36.0600 417.0000 1.0000
36.0700 409.0000 1.0000
36.0800 414.0000 1.0000
36.0900 417.0000 1.0000
36.1000 410.0000 1.0000
36.1100 427.0000 1.0000
36.1200 469.0000 1.0000
36.1300 461.0000 1.0000
36.1400 412.0000 1.0000
36.1500 439.0000 1.0000
36.1600 426.0000 1.0000
36.1700 412.0000 1.0000
36.1800 427.0000 1.0000
36.1900 410.0000 1.0000
36.2000 454.0000 1.0000
36.2100 446.0000 1.0000
36.2200 419.0000 1.0000
36.2300 438.0000 1.0000
36.2400 479.0000 1.0000
36.2500 461.0000 1.0000
36.2600 446.0000 1.0000
36.2700 398.0000 1.0000
36.2800 440.0000 1.0000
36.2900 429.0000 1.0000
36.3000 443.0000 1.0000
36.3100 432.0000 1.0000
36.3200 429.0000 1.0000
36.3300 448.0000 1.0000
36.3400 425.0000 1.0000
36.3500 452.0000 1.0000
36.3600 430.0000 1.0000
36.3700 408.0000 1.0000
36.3800 440.0000 1.0000
36.3900 453.0000 1.0000
36.4000 464.0000 1.0000
36.4100 437.0000 1.0000
36.4200 429.0000 1.0000
36.4300 397.0000 1.0000
36.4400 445.0000 1.0000
36.4500 434.0000 1.0000
36.4600 401.0000 1.0000
36.4700 445.0000 1.0000
36.4800 419.0000 1.0000
36.4900 431.0000 1.0000
36.5000 436.0000 1.0000
36.5100 425.0000 1.0000
36.5200 418.0000 1.0000
36.5300 471.0000 1.0000
36.5400 474.0000 1.0000
36.5500 440.0000 1.0000
36.5600 457.0000 1.0000
36.5700 421.0000 1.0000
36.5800 424.0000 1.0000
36.5900 402.0000 1.0000
36.6000 388.0000 1.0000
36.6100 421.0000 1.0000
36.6200 424.0000 1.0000
36.6300 415.0000 1.0000
36.6400 401.0000 1.0000
36.6500 431.0000 1.0000
36.6600 435.0000 1.0000
36.6700 417.0000 1.0000
36.6800 438.0000 1.0000
36.6900 410.0000 1.0000
36.7000 402.0000 1.0000
36.7100 405.0000 1.0000
36.7200 435.0000 1.0000
36.7300 421.0000 1.0000
36.7400 417.0000 1.0000
36.7500 429.0000 1.0000
36.7600 419.0000 1.0000
36.7700 430.0000 1.0000
36.7800 406.0000 1.0000
36.7900 453.0000 1.0000
36.8000 398.0000 1.0000
36.8100 412.0000 1.0000
36.8200 410.0000 1.0000
36.8300 431.0000 1.0000
36.8400 403.0000 1.0000
36.8500 403.0000 1.0000
36.8600 399.0000 1.0000
36.8700 432.0000 1.0000
36.8800 398.0000 1.0000
36.8900 420.0000 1.0000
36.9000 398.0000 1.0000
36.9100 398.0000 1.0000
36.9200 402.0000 1.0000
36.9300 427.0000 1.0000
36.9400 387.0000 1.0000
36.9500 435.0000 1.0000
36.9600 419.0000 1.0000
36.9700 424.0000 1.0000
36.9800 429.0000 1.0000
36.9900 433.0000 1.0000
37.0000 440.0000 1.0000
37.0100 435.0000 1.0000
37.0200 427.0000 1.0000
37.0300 442.0000 1.0000
37.0400 451.0000 1.0000
37.0500 417.0000 1.0000
37.0600 421.0000 1.0000
37.0700 446.0000 1.0000
37.0800 448.0000 1.0000
37.0900 419.0000 1.0000
37.1000 468.0000 1.0000
37.1100 428.0000 1.0000
37.1200 420.0000 1.0000
37.1300 444.0000 1.0000
37.1400 457.0000 1.0000
37.1500 422.0000 1.0000
37.1600 421.0000 1.0000
37.1700 431.0000 1.0000
37.1800 426.0000 1.0000
37.1900 456.0000 1.0000
37.2000 440.0000 1.0000
37.2100 428.0000 1.0000
37.2200 471.0000 1.0000
37.2300 461.0000 1.0000
37.2400 427.0000 1.0000
37.2500 469.0000 1.0000
37.2600 469.0000 1.0000
37.2700 486.0000 1.0000
37.2800 467.0000 1.0000
37.2900 459.0000 1.0000
37.3000 472.0000 1.0000
37.3100 486.0000 1.0000
37.3200 475.0000 1.0000
37.3300 481.0000 1.0000
37.3400 468.0000 1.0000
37.3500 498.0000 1.0000
37.3600 566.0000 1.0000
37.3700 514.0000 1.0000
37.3800 524.0000 1.0000
37.3900 533.0000 1.0000
37.4000 543.0000 1.0000
37.4100 548.0000 1.0000
37.4200 585.0000 1.0000
37.4300 599.0000 1.0000
37.4400 647.0000 1.0000
37.4500 652.0000 1.0000
37.4600 692.0000 1.0000
37.4700 690.0000 1.0000
37.4800 696.0000 1.0000
37.4900 722.0000 1.0000
37.5000 758.0000 1.0000
37.5100 794.0000 1.0000
37.5200 813.0000 1.0000
37.5300 842.0000 1.0000
37.5400 965.0000 1.0000
37.5500 981.0000 1.0000
37.5600 1063.0000 1.0000
37.5700 1078.0000 1.0000
37.5800 1167.0000 1.0000
37.5900 1229.0000 1.0000
37.6000 1308.0000 1.0000
37.6100 1387.0000 1.0000
37.6200 1481.0000 1.0000
37.6300 1614.0000 1.0000
37.6400 1705.0000 1.0000
37.6500 1840.0000 1.0000
37.6600 1879.0000 1.0000
37.6700 1939.0000 1.0000
37.6800 2036.0000 1.0000
37.6900 2095.0000 1.0000
37.7000 2127.0000 1.0000
37.7100 2149.0000 1.0000
37.7200 2223.0000 1.0000
37.7300 2267.0000 1.0000
37.7400 2193.0000 1.0000
37.7500 2168.0000 1.0000
37.7600 2089.0000 1.0000
37.7700 2095.0000 1.0000
37.7800 2004.0000 1.0000
37.7900 2008.0000 1.0000
37.8000 1921.0000 1.0000
37.8100 1822.0000 1.0000
37.8200 1721.0000 1.0000
37.8300 1723.0000 1.0000
37.8400 1604.0000 1.0000
37.8500 1472.0000 1.0000
37.8600 1408.0000 1.0000
37.8700 1337.0000 1.0000
37.8800 1249.0000 1.0000
37.8900 1185.0000 1.0000
37.9000 1176.0000 1.0000
37.9100 1025.0000 1.0000
37.9200 990.0000 1.0000
37.9300 916.0000 1.0000
37.9400 857.0000 1.0000
37.9500 834.0000 1.0000
37.9600 807.0000 1.0000
37.9700 769.0000 1.0000
37.9800 718.0000 1.0000
37.9900 712.0000 1.0000
38.0000 680.0000 1.0000
38.0100 625.0000 1.0000
38.0200 635.0000 1.0000
38.0300 584.0000 1.0000
38.0400 573.0000 1.0000
38.0500 568.0000 1.0000
38.0600 537.0000 1.0000
38.0700 522.0000 1.0000
38.0800 513.0000 1.0000
38.0900 523.0000 1.0000
38.1000 514.0000 1.0000
38.1100 480.0000 1.0000
38.1200 467.0000 1.0000
38.1300 479.0000 1.0000
38.1400 448.0000 1.0000
38.1500 454.0000 1.0000
38.1600 470.0000 1.0000
38.1700 469.0000 1.0000
38.1800 457.0000 1.0000
38.1900 456.0000 1.0000
38.2000 474.0000 1.0000
38.2100 465.0000 1.0000
38.2200 446.0000 1.0000
38.2300 414.0000 1.0000
38.2400 388.0000 1.0000
38.2500 427.0000 1.0000
38.2600 413.0000 1.0000
38.2700 438.0000 1.0000
38.2800 432.0000 1.0000
38.2900 424.0000 1.0000
38.3000 408.0000 1.0000
38.3100 418.0000 1.0000
38.3200 402.0000 1.0000
38.3300 406.0000 1.0000
38.3400 402.0000 1.0000
38.3500 405.0000 1.0000
38.3600 421.0000 1.0000
38.3700 415.0000 1.0000
38.3800 394.0000 1.0000
38.3900 388.0000 1.0000
38.4000 371.0000 1.0000
38.4100 395.0000 1.0000
38.4200 371.0000 1.0000
38.4300 405.0000 1.0000
38.4400 390.0000 1.0000
38.4500 394.0000 1.0000
38.4600 388.0000 1.0000
38.4700 403.0000 1.0000
38.4800 416.0000 1.0000
38.4900 383.0000 1.0000
38.5000 403.0000 1.0000
38.5100 349.0000 1.0000
38.5200 366.0000 1.0000
38.5300 401.0000 1.0000
38.5400 405.0000 1.0000
38.5500 380.0000 1.0000
38.5600 435.0000 1.0000
38.5700 410.0000 1.0000
38.5800 416.0000 1.0000
38.5900 411.0000 1.0000
38.6000 381.0000 1.0000
38.6100 389.0000 1.0000
38.6200 385.0000 1.0000
38.6300 398.0000 1.0000
38.6400 407.0000 1.0000
38.6500 391.0000 1.0000
38.6600 375.0000 1.0000
38.6700 408.0000 1.0000
38.6800 393.0000 1.0000
38.6900 383.0000 1.0000
38.7000 380.0000 1.0000
38.7100 392.0000 1.0000
38.7200 400.0000 1.0000
38.7300 382.0000 1.0000
38.7400 374.0000 1.0000
38.7500 376.0000 1.0000
38.7600 412.0000 1.0000
38.7700 401.0000 1.0000
38.7800 417.0000 1.0000
38.7900 421.0000 1.0000
38.8000 435.0000 1.0000
38.8100 420.0000 1.0000
38.8200 388.0000 1.0000
38.8300 389.0000 1.0000
38.8400 383.0000 1.0000
38.8500 406.0000 1.0000
38.8600 356.0000 1.0000
38.8700 381.0000 1.0000
38.8800 384.0000 1.0000
38.8900 377.0000 1.0000
38.9000 381.0000 1.0000
38.9100 397.0000 1.0000
38.9200 374.0000 1.0000
38.9300 393.0000 1.0000
38.9400 410.0000 1.0000
38.9500 404.0000 1.0000
38.9600 404.0000 1.0000
38.9700 384.0000 1.0000
38.9800 372.0000 1.0000
38.9900 372.0000 1.0000
39.0000 402.0000 1.0000
39.0100 349.0000 1.0000
39.0200 404.0000 1.0000
39.0300 364.0000 1.0000
39.0400 376.0000 1.0000
39.0500 399.0000 1.0000
39.0600 349.0000 1.0000
39.0700 398.0000 1.0000
39.0800 359.0000 1.0000
39.0900 365.0000 1.0000
39.1000 375.0000 1.0000
39.1100 378.0000 1.0000
39.1200 364.0000 1.0000
39.1300 378.0000 1.0000
39.1400 380.0000 1.0000
39.1500 394.0000 1.0000
39.1600 367.0000 1.0000
39.1700 384.0000 1.0000
39.1800 384.0000 1.0000
39.1900 369.0000 1.0000
39.2000 400.0000 1.0000
39.2100 384.0000 1.0000
39.2200 373.0000 1.0000
39.2300 366.0000 1.0000
39.2400 356.0000 1.0000
39.2500 364.0000 1.0000
39.2600 370.0000 1.0000
39.2700 349.0000 1.0000
39.2800 382.0000 1.0000
39.2900 359.0000 1.0000
39.3000 339.0000 1.0000
39.3100 395.0000 1.0000
39.3200 374.0000 1.0000
39.3300 374.0000 1.0000
39.3400 366.0000 1.0000
39.3500 361.0000 1.0000
39.3600 380.0000 1.0000
39.3700 357.0000 1.0000
39.3800 378.0000 1.0000
39.3900 361.0000 1.0000
39.4000 371.0000 1.0000
39.4100 359.0000 1.0000
39.4200 352.0000 1.0000
39.4300 376.0000 1.0000
39.4400 360.0000 1.0000
39.4500 365.0000 1.0000
39.4600 388.0000 1.0000
39.4700 347.0000 1.0000
39.4800 371.0000 1.0000
39.4900 351.0000 1.0000
39.5000 382.0000 1.0000
39.5100 365.0000 1.0000
39.5200 356.0000 1.0000
39.5300 356.0000 1.0000
39.5400 367.0000 1.0000
39.5500 375.0000 1.0000
39.5600 354.0000 1.0000
39.5700 353.0000 1.0000
39.5800 357.0000 1.0000
39.5900 382.0000 1.0000
39.6000 361.0000 1.0000
39.6100 337.0000 1.0000
39.6200 352.0000 1.0000
39.6300 372.0000 1.0000
39.6400 383.0000 1.0000
39.6500 382.0000 1.0000
39.6600 360.0000 1.0000
39.6700 370.0000 1.0000
39.6800 383.0000 1.0000
39.6900 352.0000 1.0000
39.7000 353.0000 1.0000
39.7100 371.0000 1.0000
39.7200 324.0000 1.0000
39.7300 365.0000 1.0000
39.7400 353.0000 1.0000
39.7500 349.0000 1.0000
39.7600 330.0000 1.0000
39.7700 380.0000 1.0000
39.7800 381.0000 1.0000
39.7900 357.0000 1.0000
39.8000 344.0000 1.0000
39.8100 350.0000 1.0000
39.8200 355.0000 1.0000
39.8300 363.0000 1.0000
39.8400 355.0000 1.0000
39.8500 363.0000 1.0000
39.8600 356.0000 1.0000
39.8700 372.0000 1.0000
39.8800 392.0000 1.0000
39.8900 337.0000 1.0000
39.9000 372.0000 1.0000
39.9100 351.0000 1.0000
39.9200 346.0000 1.0000
39.9300 350.0000 1.0000
39.9400 353.0000 1.0000
39.9500 356.0000 1.0000
39.9600 353.0000 1.0000
39.9700 390.0000 1.0000
39.9800 364.0000 1.0000
39.9900 373.0000 1.0000
40.0000 332.0000 1.0000
40.0100 339.0000 1.0000
40.0200 353.0000 1.0000
40.0300 366.0000 1.0000
40.0400 348.0000 1.0000
40.0500 370.0000 1.0000
40.0600 357.0000 1.0000
40.0700 332.0000 1.0000
40.0800 338.0000 1.0000
40.0900 354.0000 1.0000
40.1000 340.0000 1.0000
40.1100 361.0000 1.0000
40.1200 318.0000 1.0000
40.1300 329.0000 1.0000
40.1400 348.0000 1.0000
40.1500 328.0000 1.0000
40.1600 356.0000 1.0000
40.1700 332.0000 1.0000
40.1800 326.0000 1.0000
40.1900 336.0000 1.0000
40.2000 341.0000 1.0000
40.2100 370.0000 1.0000
40.2200 364.0000 1.0000
40.2300 352.0000 1.0000
40.2400 357.0000 1.0000
40.2500 361.0000 1.0000
40.2600 374.0000 1.0000
40.2700 334.0000 1.0000
40.2800 337.0000 1.0000
40.2900 345.0000 1.0000
40.3000 339.0000 1.0000
40.3100 357.0000 1.0000
40.3200 333.0000 1.0000
40.3300 342.0000 1.0000
40.3400 325.0000 1.0000
40.3500 338.0000 1.0000
40.3600 376.0000 1.0000
40.3700 357.0000 1.0000
40.3800 332.0000 1.0000
40.3900 346.0000 1.0000
40.4000 350.0000 1.0000
40.4100 345.0000 1.0000
40.4200 358.0000 1.0000
40.4300 342.0000 1.0000
40.4400 345.0000 1.0000
40.4500 344.0000 1.0000
40.4600 382.0000 1.0000
40.4700 365.0000 1.0000
40.4800 351.0000 1.0000
40.4900 353.0000 1.0000
40.5000 348.0000 1.0000
40.5100 352.0000 1.0000
40.5200 324.0000 1.0000
40.5300 380.0000 1.0000
40.5400 351.0000 1.0000
40.5500 344.0000 1.0000
40.5600 339.0000 1.0000
40.5700 334.0000 1.0000
40.5800 333.0000 1.0000
40.5900 374.0000 1.0000
40.6000 337.0000 1.0000
40.6100 345.0000 1.0000
40.6200 329.0000 1.0000
40.6300 354.0000 1.0000
40.6400 390.0000 1.0000
40.6500 359.0000 1.0000
40.6600 342.0000 1.0000
40.6700 335.0000 1.0000
40.6800 355.0000 1.0000
40.6900 338.0000 1.0000
40.7000 332.0000 1.0000
40.7100 349.0000 1.0000
40.7200 353.0000 1.0000
40.7300 348.0000 1.0000
40.7400 360.0000 1.0000
40.7500 374.0000 1.0000
40.7600 348.0000 1.0000
40.7700 346.0000 1.0000
40.7800 387.0000 1.0000
40.7900 376.0000 1.0000
40.8000 355.0000 1.0000
40.8100 381.0000 1.0000
40.8200 379.0000 1.0000
40.8300 378.0000 1.0000
40.8400 397.0000 1.0000
40.8500 384.0000 1.0000
40.8600 358.0000 1.0000
40.8700 360.0000 1.0000
40.8800 317.0000 1.0000
40.8900 352.0000 1.0000
40.9000 365.0000 1.0000
40.9100 378.0000 1.0000
40.9200 348.0000 1.0000
40.9300 377.0000 1.0000
40.9400 361.0000 1.0000
40.9500 376.0000 1.0000
40.9600 361.0000 1.0000
40.9700 354.0000 1.0000
40.9800 343.0000 1.0000
40.9900 334.0000 1.0000
41.0000 353.0000 1.0000
41.0100 346.0000 1.0000
41.0200 335.0000 1.0000
41.0300 348.0000 1.0000
41.0400 354.0000 1.0000
41.0500 342.0000 1.0000
41.0600 328.0000 1.0000
41.0700 353.0000 1.0000
41.0800 335.0000 1.0000
41.0900 316.0000 1.0000
41.1000 337.0000 1.0000
41.1100 303.0000 1.0000
41.1200 340.0000 1.0000
41.1300 356.0000 1.0000
41.1400 359.0000 1.0000
41.1500 350.0000 1.0000
41.1600 323.0000 1.0000
41.1700 361.0000 1.0000
41.1800 346.0000 1.0000
41.1900 340.0000 1.0000
41.2000 346.0000 1.0000
41.2100 335.0000 1.0000
41.2200 346.0000 1.0000
41.2300 351.0000 1.0000
41.2400 338.0000 1.0000
41.2500 327.0000 1.0000
41.2600 335.0000 1.0000
41.2700 391.0000 1.0000
41.2800 357.0000 1.0000
41.2900 339.0000 1.0000
41.3000 318.0000 1.0000
41.3100 337.0000 1.0000
41.3200 339.0000 1.0000
41.3300 332.0000 1.0000
41.3400 323.0000 1.0000
41.3500 347.0000 1.0000
41.3600 330.0000 1.0000
41.3700 360.0000 1.0000
41.3800 328.0000 1.0000
41.3900 348.0000 1.0000
41.4000 332.0000 1.0000
41.4100 347.0000 1.0000
41.4200 331.0000 1.0000
41.4300 361.0000 1.0000
41.4400 327.0000 1.0000
41.4500 327.0000 1.0000
41.4600 358.0000 1.0000
41.4700 342.0000 1.0000
41.4800 350.0000 1.0000
41.4900 372.0000 1.0000
41.5000 339.0000 1.0000
41.5100 358.0000 1.0000
41.5200 361.0000 1.0000
41.5300 347.0000 1.0000
41.5400 343.0000 1.0000
41.5500 352.0000 1.0000
41.5600 362.0000 1.0000
41.5700 328.0000 1.0000
41.5800 348.0000 1.0000
41.5900 333.0000 1.0000
41.6000 359.0000 1.0000
41.6100 352.0000 1.0000
41.6200 351.0000 1.0000
41.6300 324.0000 1.0000
41.6400 345.0000 1.0000
41.6500 362.0000 1.0000
41.6600 344.0000 1.0000
41.6700 312.0000 1.0000
41.6800 343.0000 1.0000
41.6900 318.0000 1.0000
41.7000 357.0000 1.0000
41.7100 347.0000 1.0000
41.7200 307.0000 1.0000
41.7300 348.0000 1.0000
41.7400 365.0000 1.0000
41.7500 346.0000 1.0000
41.7600 368.0000 1.0000
41.7700 346.0000 1.0000
41.7800 347.0000 1.0000
41.7900 373.0000 1.0000
41.8000 324.0000 1.0000
41.8100 337.0000 1.0000
41.8200 365.0000 1.0000
41.8300 354.0000 1.0000
41.8400 363.0000 1.0000
41.8500 350.0000 1.0000
41.8600 339.0000 1.0000
41.8700 320.0000 1.0000
41.8800 343.0000 1.0000
41.8900 318.0000 1.0000
41.9000 331.0000 1.0000
41.9100 336.0000 1.0000
41.9200 317.0000 1.0000
41.9300 334.0000 1.0000
41.9400 349.0000 1.0000
41.9500 340.0000 1.0000
41.9600 342.0000 1.0000
41.9700 328.0000 1.0000
41.9800 324.0000 1.0000
41.9900 318.0000 1.0000
42.0000 363.0000 1.0000
42.0100 332.0000 1.0000
42.0200 349.0000 1.0000
42.0300 337.0000 1.0000
42.0400 331.0000 1.0000
42.0500 360.0000 1.0000
42.0600 353.0000 1.0000
42.0700 346.0000 1.0000
42.0800 343.0000 1.0000
42.0900 342.0000 1.0000
42.1000 346.0000 1.0000
42.1100 334.0000 1.0000
42.1200 337.0000 1.0000
42.1300 351.0000 1.0000
42.1400 296.0000 1.0000
42.1500 363.0000 1.0000
42.1600 325.0000 1.0000
42.1700 322.0000 1.0000
42.1800 360.0000 1.0000
42.1900 343.0000 1.0000
42.2000 342.0000 1.0000
42.2100 367.0000 1.0000
42.2200 353.0000 1.0000
42.2300 342.0000 1.0000
42.2400 350.0000 1.0000
42.2500 368.0000 1.0000
42.2600 366.0000 1.0000
42.2700 363.0000 1.0000
42.2800 341.0000 1.0000
42.2900 341.0000 1.0000
42.3000 371.0000 1.0000
42.3100 389.0000 1.0000
42.3200 358.0000 1.0000
42.3300 369.0000 1.0000
42.3400 358.0000 1.0000
42.3500 352.0000 1.0000
42.3600 367.0000 1.0000
42.3700 358.0000 1.0000
42.3800 376.0000 1.0000
42.3900 346.0000 1.0000
42.4000 379.0000 1.0000
42.4100 358.0000 1.0000
42.4200 361.0000 1.0000
42.4300 372.0000 1.0000
42.4400 349.0000 1.0000
42.4500 362.0000 1.0000
42.4600 396.0000 1.0000
42.4700 337.0000 1.0000
42.4800 380.0000 1.0000
42.4900 351.0000 1.0000
42.5000 350.0000 1.0000
42.5100 350.0000 1.0000
42.5200 373.0000 1.0000
42.5300 356.0000 1.0000
42.5400 349.0000 1.0000
42.5500 357.0000 1.0000
42.5600 350.0000 1.0000
42.5700 360.0000 1.0000
42.5800 355.0000 1.0000
42.5900 348.0000 1.0000
42.6000 353.0000 1.0000
42.6100 332.0000 1.0000
42.6200 361.0000 1.0000
42.6300 364.0000 1.0000
42.6400 339.0000 1.0000
42.6500 366.0000 1.0000
42.6600 345.0000 1.0000
42.6700 325.0000 1.0000
42.6800 329.0000 1.0000
42.6900 343.0000 1.0000
42.7000 329.0000 1.0000
42.7100 338.0000 1.0000
42.7200 333.0000 1.0000
42.7300 347.0000 1.0000
42.7400 361.0000 1.0000
42.7500 331.0000 1.0000
42.7600 338.0000 1.0000
42.7700 326.0000 1.0000
42.7800 348.0000 1.0000
42.7900 346.0000 1.0000
42.8000 344.0000 1.0000
42.8100 364.0000 1.0000
42.8200 336.0000 1.0000
42.8300 336.0000 1.0000
42.8400 350.0000 1.0000
42.8500 309.0000 1.0000
42.8600 334.0000 1.0000
42.8700 328.0000 1.0000
42.8800 349.0000 1.0000
42.8900 326.0000 1.0000
42.9000 347.0000 1.0000
42.9100 338.0000 1.0000
42.9200 327.0000 1.0000
42.9300 333.0000 1.0000
42.9400 352.0000 1.0000
42.9500 359.0000 1.0000
42.9600 331.0000 1.0000
42.9700 322.0000 1.0000
42.9800 306.0000 1.0000
42.9900 304.0000 1.0000
43.0000 325.0000 1.0000
43.0100 315.0000 1.0000
43.0200 331.0000 1.0000
43.0300 332.0000 1.0000
43.0400 324.0000 1.0000
43.0500 339.0000 1.0000
43.0600 324.0000 1.0000
43.0700 357.0000 1.0000
43.0800 323.0000 1.0000
43.0900 345.0000 1.0000
43.1000 335.0000 1.0000
43.1100 368.0000 1.0000
43.1200 342.0000 1.0000
43.1300 307.0000 1.0000
43.1400 301.0000 1.0000
43.1500 337.0000 1.0000
43.1600 345.0000 1.0000
43.1700 324.0000 1.0000
43.1800 292.0000 1.0000
43.1900 349.0000 1.0000
43.2000 313.0000 1.0000
43.2100 328.0000 1.0000
43.2200 332.0000 1.0000
43.2300 313.0000 1.0000
43.2400 337.0000 1.0000
43.2500 369.0000 1.0000
43.2600 317.0000 1.0000
43.2700 311.0000 1.0000
43.2800 304.0000 1.0000
43.2900 323.0000 1.0000
43.3000 323.0000 1.0000
43.3100 338.0000 1.0000
43.3200 323.0000 1.0000
43.3300 308.0000 1.0000
43.3400 328.0000 1.0000
43.3500 330.0000 1.0000
43.3600 322.0000 1.0000
43.3700 319.0000 1.0000
43.3800 339.0000 1.0000
43.3900 330.0000 1.0000
43.4000 337.0000 1.0000
43.4100 341.0000 1.0000
43.4200 340.0000 1.0000
43.4300 332.0000 1.0000
43.4400 354.0000 1.0000
43.4500 330.0000 1.0000
43.4600 323.0000 1.0000
43.4700 279.0000 1.0000
43.4800 328.0000 1.0000
43.4900 341.0000 1.0000
43.5000 336.0000 1.0000
43.5100 337.0000 1.0000
43.5200 308.0000 1.0000
43.5300 345.0000 1.0000
43.5400 353.0000 1.0000
43.5500 342.0000 1.0000
43.5600 328.0000 1.0000
43.5700 339.0000 1.0000
43.5800 340.0000 1.0000
43.5900 348.0000 1.0000
43.6000 333.0000 1.0000
43.6100 297.0000 1.0000
43.6200 305.0000 1.0000
43.6300 309.0000 1.0000
43.6400 317.0000 1.0000
43.6500 364.0000 1.0000
43.6600 348.0000 1.0000
43.6700 372.0000 1.0000
43.6800 351.0000 1.0000
43.6900 348.0000 1.0000
43.7000 317.0000 1.0000
43.7100 350.0000 1.0000
43.7200 352.0000 1.0000
43.7300 382.0000 1.0000
43.7400 362.0000 1.0000
43.7500 377.0000 1.0000
43.7600 356.0000 1.0000
43.7700 340.0000 1.0000
43.7800 334.0000 1.0000
43.7900 340.0000 1.0000
43.8000 325.0000 1.0000
43.8100 335.0000 1.0000
43.8200 311.0000 1.0000
43.8300 340.0000 1.0000
43.8400 331.0000 1.0000
43.8500 331.0000 1.0000
43.8600 311.0000 1.0000
43.8700 316.0000 1.0000
43.8800 332.0000 1.0000
43.8900 327.0000 1.0000
43.9000 344.0000 1.0000
43.9100 317.0000 1.0000
43.9200 314.0000 1.0000
43.9300 311.0000 1.0000
43.9400 326.0000 1.0000
43.9500 360.0000 1.0000
43.9600 340.0000 1.0000
43.9700 329.0000 1.0000
43.9800 326.0000 1.0000
43.9900 313.0000 1.0000
44.0000 326.0000 1.0000
44.0100 304.0000 1.0000
44.0200 337.0000 1.0000
44.0300 310.0000 1.0000
44.0400 297.0000 1.0000
44.0500 325.0000 1.0000
44.0600 324.0000 1.0000
44.0700 313.0000 1.0000
44.0800 340.0000 1.0000
44.0900 332.0000 1.0000
44.1000 313.0000 1.0000
44.1100 339.0000 1.0000
44.1200 335.0000 1.0000
44.1300 325.0000 1.0000
44.1400 316.0000 1.0000
44.1500 345.0000 1.0000
44.1600 338.0000 1.0000
44.1700 305.0000 1.0000
44.1800 334.0000 1.0000
44.1900 327.0000 1.0000
44.2000 312.0000 1.0000
44.2100 337.0000 1.0000
44.2200 329.0000 1.0000
44.2300 337.0000 1.0000
44.2400 326.0000 1.0000
44.2500 313.0000 1.0000
44.2600 325.0000 1.0000
44.2700 319.0000 1.0000
44.2800 331.0000 1.0000
44.2900 311.0000 1.0000
44.3000 351.0000 1.0000
44.3100 367.0000 1.0000
44.3200 339.0000 1.0000
44.3300 316.0000 1.0000
44.3400 341.0000 1.0000
44.3500 312.0000 1.0000
44.3600 309.0000 1.0000
44.3700 309.0000 1.0000
44.3800 319.0000 1.0000
44.3900 329.0000 1.0000
44.4000 304.0000 1.0000
44.4100 333.0000 1.0000
44.4200 324.0000 1.0000
44.4300 309.0000 1.0000
44.4400 312.0000 1.0000
44.4500 311.0000 1.0000
44.4600 314.0000 1.0000
44.4700 311.0000 1.0000
44.4800 328.0000 1.0000
44.4900 323.0000 1.0000
44.5000 324.0000 1.0000
44.5100 325.0000 1.0000
44.5200 307.0000 1.0000
44.5300 300.0000 1.0000
44.5400 314.0000 1.0000
44.5500 324.0000 1.0000
44.5600 298.0000 1.0000
44.5700 301.0000 1.0000
44.5800 287.0000 1.0000
44.5900 336.0000 1.0000
44.6000 314.0000 1.0000
44.6100 315.0000 1.0000
44.6200 332.0000 1.0000
44.6300 310.0000 1.0000
44.6400 308.0000 1.0000
44.6500 272.0000 1.0000
44.6600 308.0000 1.0000
44.6700 312.0000 1.0000
44.6800 323.0000 1.0000
44.6900 289.0000 1.0000
44.7000 302.0000 1.0000
44.7100 316.0000 1.0000
44.7200 315.0000 1.0000
44.7300 324.0000 1.0000
44.7400 302.0000 1.0000
44.7500 280.0000 1.0000
44.7600 310.0000 1.0000
44.7700 346.0000 1.0000
44.7800 344.0000 1.0000
44.7900 306.0000 1.0000
44.8000 294.0000 1.0000
44.8100 330.0000 1.0000
44.8200 327.0000 1.0000
44.8300 318.0000 1.0000
44.8400 331.0000 1.0000
44.8500 313.0000 1.0000
44.8600 302.0000 1.0000
44.8700 318.0000 1.0000
44.8800 329.0000 1.0000
44.8900 320.0000 1.0000
44.9000 302.0000 1.0000
44.9100 299.0000 1.0000
44.9200 331.0000 1.0000
44.9300 289.0000 1.0000
44.9400 324.0000 1.0000
44.9500 321.0000 1.0000
44.9600 307.0000 1.0000
44.9700 294.0000 1.0000
44.9800 297.0000 1.0000
44.9900 315.0000 1.0000
45.0000 282.0000 1.0000
45.0100 313.0000 1.0000
45.0200 317.0000 1.0000
45.0300 312.0000 1.0000
45.0400 319.0000 1.0000
45.0500 325.0000 1.0000
45.0600 341.0000 1.0000
45.0700 316.0000 1.0000
45.0800 322.0000 1.0000
45.0900 285.0000 1.0000
45.1000 325.0000 1.0000
45.1100 302.0000 1.0000
45.1200 275.0000 1.0000
45.1300 312.0000 1.0000
45.1400 315.0000 1.0000
45.1500 309.0000 1.0000
45.1600 301.0000 1.0000
45.1700 303.0000 1.0000
45.1800 324.0000 1.0000
45.1900 302.0000 1.0000
45.2000 289.0000 1.0000
45.2100 317.0000 1.0000
45.2200 312.0000 1.0000
45.2300 288.0000 1.0000
45.2400 295.0000 1.0000
45.2500 320.0000 1.0000
45.2600 300.0000 1.0000
45.2700 320.0000 1.0000
45.2800 306.0000 1.0000
45.2900 335.0000 1.0000
45.3000 344.0000 1.0000
45.3100 301.0000 1.0000
45.3200 321.0000 1.0000
45.3300 305.0000 1.0000
45.3400 319.0000 1.0000
45.3500 302.0000 1.0000
45.3600 319.0000 1.0000
45.3700 298.0000 1.0000
45.3800 335.0000 1.0000
45.3900 299.0000 1.0000
45.4000 323.0000 1.0000
45.4100 331.0000 1.0000
45.4200 319.0000 1.0000
45.4300 314.0000 1.0000
45.4400 291.0000 1.0000
45.4500 326.0000 1.0000
45.4600 327.0000 1.0000
45.4700 305.0000 1.0000
45.4800 312.0000 1.0000
45.4900 306.0000 1.0000
45.5000 297.0000 1.0000
45.5100 293.0000 1.0000
45.5200 323.0000 1.0000
45.5300 294.0000 1.0000
45.5400 326.0000 1.0000
45.5500 347.0000 1.0000
45.5600 308.0000 1.0000
45.5700 299.0000 1.0000
45.5800 293.0000 1.0000
45.5900 286.0000 1.0000
45.6000 304.0000 1.0000
45.6100 301.0000 1.0000
45.6200 295.0000 1.0000
45.6300 302.0000 1.0000
45.6400 303.0000 1.0000
45.6500 303.0000 1.0000
45.6600 310.0000 1.0000
45.6700 289.0000 1.0000
45.6800 276.0000 1.0000
45.6900 300.0000 1.0000
45.7000 286.0000 1.0000
45.7100 329.0000 1.0000
45.7200 297.0000 1.0000
45.7300 289.0000 1.0000
45.7400 309.0000 1.0000
45.7500 307.0000 1.0000
45.7600 312.0000 1.0000
45.7700 340.0000 1.0000
45.7800 323.0000 1.0000
45.7900 291.0000 1.0000
45.8000 309.0000 1.0000
45.8100 299.0000 1.0000
45.8200 290.0000 1.0000
45.8300 317.0000 1.0000
45.8400 305.0000 1.0000
45.8500 307.0000 1.0000
45.8600 316.0000 1.0000
45.8700 325.0000 1.0000
45.8800 296.0000 1.0000
45.8900 305.0000 1.0000
45.9000 303.0000 1.0000
45.9100 306.0000 1.0000
45.9200 297.0000 1.0000
45.9300 327.0000 1.0000
45.9400 311.0000 1.0000
45.9500 322.0000 1.0000
45.9600 317.0000 1.0000
45.9700 310.0000 1.0000
45.9800 307.0000 1.0000
45.9900 324.0000 1.0000
46.0000 311.0000 1.0000
46.0100 292.0000 1.0000
46.0200 301.0000 1.0000
46.0300 305.0000 1.0000
46.0400 320.0000 1.0000
46.0500 296.0000 1.0000
46.0600 293.0000 1.0000
46.0700 312.0000 1.0000
46.0800 308.0000 1.0000
46.0900 321.0000 1.0000
46.1000 313.0000 1.0000
46.1100 289.0000 1.0000
46.1200 314.0000 1.0000
46.1300 311.0000 1.0000
46.1400 312.0000 1.0000
46.1500 346.0000 1.0000
46.1600 322.0000 1.0000
46.1700 325.0000 1.0000
46.1800 329.0000 1.0000
46.1900 319.0000 1.0000
46.2000 333.0000 1.0000
46.2100 329.0000 1.0000
46.2200 316.0000 1.0000
46.2300 306.0000 1.0000
46.2400 311.0000 1.0000
46.2500 345.0000 1.0000
46.2600 311.0000 1.0000
46.2700 337.0000 1.0000
46.2800 333.0000 1.0000
46.2900 317.0000 1.0000
46.3000 304.0000 1.0000
46.3100 296.0000 1.0000
46.3200 289.0000 1.0000
46.3300 283.0000 1.0000
46.3400 298.0000 1.0000
46.3500 300.0000 1.0000
46.3600 320.0000 1.0000
46.3700 310.0000 1.0000
46.3800 310.0000 1.0000
46.3900 320.0000 1.0000
46.4000 320.0000 1.0000
46.4100 343.0000 1.0000
46.4200 316.0000 1.0000
46.4300 313.0000 1.0000
46.4400 310.0000 1.0000
46.4500 286.0000 1.0000
46.4600 308.0000 1.0000
46.4700 314.0000 1.0000
46.4800 286.0000 1.0000
46.4900 296.0000 1.0000
46.5000 306.0000 1.0000
46.5100 325.0000 1.0000
46.5200 329.0000 1.0000
46.5300 300.0000 1.0000
46.5400 283.0000 1.0000
46.5500 262.0000 1.0000
46.5600 304.0000 1.0000
46.5700 325.0000 1.0000
46.5800 326.0000 1.0000
46.5900 316.0000 1.0000
46.6000 288.0000 1.0000
46.6100 291.0000 1.0000
46.6200 325.0000 1.0000
46.6300 305.0000 1.0000
46.6400 289.0000 1.0000
46.6500 315.0000 1.0000
46.6600 310.0000 1.0000
46.6700 283.0000 1.0000
46.6800 281.0000 1.0000
46.6900 300.0000 1.0000
46.7000 295.0000 1.0000
46.7100 305.0000 1.0000
46.7200 300.0000 1.0000
46.7300 307.0000 1.0000
46.7400 295.0000 1.0000
46.7500 293.0000 1.0000
46.7600 302.0000 1.0000
46.7700 295.0000 1.0000
46.7800 304.0000 1.0000
46.7900 304.0000 1.0000
46.8000 298.0000 1.0000
46.8100 281.0000 1.0000
46.8200 292.0000 1.0000
46.8300 286.0000 1.0000
46.8400 273.0000 1.0000
46.8500 305.0000 1.0000
46.8600 294.0000 1.0000
46.8700 304.0000 1.0000
46.8800 290.0000 1.0000
46.8900 285.0000 1.0000
46.9000 271.0000 1.0000
46.9100 301.0000 1.0000
46.9200 316.0000 1.0000
46.9300 307.0000 1.0000
46.9400 269.0000 1.0000
46.9500 291.0000 1.0000
46.9600 307.0000 1.0000
46.9700 293.0000 1.0000
46.9800 290.0000 1.0000
46.9900 273.0000 1.0000
47.0000 286.0000 1.0000
47.0100 285.0000 1.0000
47.0200 324.0000 1.0000
47.0300 297.0000 1.0000
47.0400 286.0000 1.0000
47.0500 286.0000 1.0000
47.0600 313.0000 1.0000
47.0700 284.0000 1.0000
47.0800 286.0000 1.0000
47.0900 285.0000 1.0000
47.1000 303.0000 1.0000
47.1100 297.0000 1.0000
47.1200 324.0000 1.0000
47.1300 313.0000 1.0000
47.1400 297.0000 1.0000
47.1500 299.0000 1.0000
47.1600 302.0000 1.0000
47.1700 301.0000 1.0000
47.1800 280.0000 1.0000
47.1900 291.0000 1.0000
47.2000 295.0000 1.0000
47.2100 292.0000 1.0000
47.2200 290.0000 1.0000
47.2300 288.0000 1.0000
47.2400 294.0000 1.0000
47.2500 290.0000 1.0000
47.2600 292.0000 1.0000
47.2700 298.0000 1.0000
47.2800 306.0000 1.0000
47.2900 309.0000 1.0000
47.3000 307.0000 1.0000
47.3100 302.0000 1.0000
47.3200 291.0000 1.0000
47.3300 293.0000 1.0000
47.3400 317.0000 1.0000
47.3500 286.0000 1.0000
47.3600 309.0000 1.0000
47.3700 288.0000 1.0000
47.3800 295.0000 1.0000
47.3900 311.0000 1.0000
47.4000 298.0000 1.0000
47.4100 281.0000 1.0000
47.4200 295.0000 1.0000
47.4300 281.0000 1.0000
47.4400 293.0000 1.0000
47.4500 293.0000 1.0000
47.4600 303.0000 1.0000
47.4700 310.0000 1.0000
47.4800 293.0000 1.0000
47.4900 292.0000 1.0000
47.5000 315.0000 1.0000
47.5100 279.0000 1.0000
47.5200 291.0000 1.0000
47.5300 286.0000 1.0000
47.5400 284.0000 1.0000
47.5500 271.0000 1.0000
47.5600 310.0000 1.0000
47.5700 284.0000 1.0000
47.5800 312.0000 1.0000
47.5900 291.0000 1.0000
47.6000 311.0000 1.0000
47.6100 271.0000 1.0000
47.6200 281.0000 1.0000
47.6300 289.0000 1.0000
47.6400 286.0000 1.0000
47.6500 284.0000 1.0000
47.6600 280.0000 1.0000
47.6700 309.0000 1.0000
47.6800 278.0000 1.0000
47.6900 260.0000 1.0000
47.7000 254.0000 1.0000
47.7100 298.0000 1.0000
47.7200 300.0000 1.0000
47.7300 286.0000 1.0000
47.7400 300.0000 1.0000
47.7500 316.0000 1.0000
47.7600 304.0000 1.0000
47.7700 312.0000 1.0000
47.7800 277.0000 1.0000
47.7900 304.0000 1.0000
47.8000 314.0000 1.0000
47.8100 288.0000 1.0000
47.8200 289.0000 1.0000
47.8300 312.0000 1.0000
47.8400 299.0000 1.0000
47.8500 267.0000 1.0000
47.8600 279.0000 1.0000
47.8700 298.0000 1.0000
47.8800 292.0000 1.0000
47.8900 277.0000 1.0000
47.9000 294.0000 1.0000
47.9100 310.0000 1.0000
47.9200 268.0000 1.0000
47.9300 284.0000 1.0000
47.9400 301.0000 1.0000
47.9500 299.0000 1.0000
47.9600 290.0000 1.0000
47.9700 298.0000 1.0000
47.9800 275.0000 1.0000
47.9900 261.0000 1.0000
48.0000 285.0000 1.0000
48.0100 290.0000 1.0000
48.0200 291.0000 1.0000
48.0300 294.0000 1.0000
48.0400 286.0000 1.0000
48.0500 289.0000 1.0000
48.0600 292.0000 1.0000
48.0700 262.0000 1.0000
48.0800 266.0000 1.0000
48.0900 295.0000 1.0000
48.1000 319.0000 1.0000
48.1100 284.0000 1.0000
48.1200 279.0000 1.0000
48.1300 272.0000 1.0000
48.1400 273.0000 1.0000
48.1500 266.0000 1.0000
48.1600 281.0000 1.0000
48.1700 263.0000 1.0000
48.1800 274.0000 1.0000
48.1900 270.0000 1.0000
48.2000 296.0000 1.0000
48.2100 299.0000 1.0000
48.2200 289.0000 1.0000
48.2300 279.0000 1.0000
48.2400 292.0000 1.0000
48.2500 280.0000 1.0000
48.2600 293.0000 1.0000
48.2700 307.0000 1.0000
48.2800 282.0000 1.0000
48.2900 287.0000 1.0000
48.3000 288.0000 1.0000
48.3100 269.0000 1.0000
48.3200 290.0000 1.0000
48.3300 288.0000 1.0000
48.3400 284.0000 1.0000
48.3500 294.0000 1.0000
48.3600 278.0000 1.0000
48.3700 281.0000 1.0000
48.3800 283.0000 1.0000
48.3900 319.0000 1.0000
48.4000 310.0000 1.0000
48.4100 275.0000 1.0000
48.4200 287.0000 1.0000
48.4300 293.0000 1.0000
48.4400 288.0000 1.0000
48.4500 260.0000 1.0000
48.4600 288.0000 1.0000
48.4700 271.0000 1.0000
48.4800 276.0000 1.0000
48.4900 266.0000 1.0000
48.5000 269.0000 1.0000
48.5100 282.0000 1.0000
48.5200 267.0000 1.0000
48.5300 295.0000 1.0000
48.5400 292.0000 1.0000
48.5500 291.0000 1.0000
48.5600 296.0000 1.0000
48.5700 293.0000 1.0000
48.5800 298.0000 1.0000
48.5900 308.0000 1.0000
48.6000 304.0000 1.0000
48.6100 302.0000 1.0000
48.6200 288.0000 1.0000
48.6300 298.0000 1.0000
48.6400 289.0000 1.0000
48.6500 275.0000 1.0000
48.6600 294.0000 1.0000
48.6700 290.0000 1.0000
48.6800 288.0000 1.0000
48.6900 289.0000 1.0000
48.7000 307.0000 1.0000
48.7100 284.0000 1.0000
48.7200 282.0000 1.0000
48.7300 273.0000 1.0000
48.7400 291.0000 1.0000
48.7500 256.0000 1.0000
48.7600 288.0000 1.0000
48.7700 306.0000 1.0000
48.7800 262.0000 1.0000
48.7900 266.0000 1.0000
48.8000 295.0000 1.0000
48.8100 292.0000 1.0000
48.8200 300.0000 1.0000
48.8300 266.0000 1.0000
48.8400 279.0000 1.0000
48.8500 306.0000 1.0000
48.8600 300.0000 1.0000
48.8700 289.0000 1.0000
48.8800 264.0000 1.0000
48.8900 306.0000 1.0000
48.9000 308.0000 1.0000
48.9100 314.0000 1.0000
48.9200 340.0000 1.0000
48.9300 303.0000 1.0000
48.9400 288.0000 1.0000
48.9500 282.0000 1.0000
48.9600 314.0000 1.0000
48.9700 296.0000 1.0000
48.9800 294.0000 1.0000
48.9900 287.0000 1.0000
49.0000 276.0000 1.0000
49.0100 293.0000 1.0000
49.0200 300.0000 1.0000
49.0300 285.0000 1.0000
49.0400 285.0000 1.0000
49.0500 303.0000 1.0000
49.0600 285.0000 1.0000
49.0700 288.0000 1.0000
49.0800 275.0000 1.0000
49.0900 263.0000 1.0000
49.1000 291.0000 1.0000
49.1100 333.0000 1.0000
49.1200 298.0000 1.0000
49.1300 300.0000 1.0000
49.1400 292.0000 1.0000
49.1500 277.0000 1.0000
49.1600 283.0000 1.0000
49.1700 276.0000 1.0000
49.1800 287.0000 1.0000
49.1900 278.0000 1.0000
49.2000 296.0000 1.0000
49.2100 310.0000 1.0000
49.2200 264.0000 1.0000
49.2300 297.0000 1.0000
49.2400 309.0000 1.0000
49.2500 291.0000 1.0000
49.2600 318.0000 1.0000
49.2700 284.0000 1.0000
49.2800 269.0000 1.0000
49.2900 302.0000 1.0000
49.3000 294.0000 1.0000
49.3100 275.0000 1.0000
49.3200 288.0000 1.0000
49.3300 298.0000 1.0000
49.3400 287.0000 1.0000
49.3500 287.0000 1.0000
49.3600 295.0000 1.0000
49.3700 292.0000 1.0000
49.3800 309.0000 1.0000
49.3900 308.0000 1.0000
49.4000 301.0000 1.0000
49.4100 300.0000 1.0000
49.4200 325.0000 1.0000
49.4300 292.0000 1.0000
49.4400 293.0000 1.0000
49.4500 298.0000 1.0000
49.4600 312.0000 1.0000
49.4700 301.0000 1.0000
49.4800 299.0000 1.0000
49.4900 322.0000 1.0000
49.5000 282.0000 1.0000
49.5100 266.0000 1.0000
49.5200 295.0000 1.0000
49.5300 322.0000 1.0000
49.5400 311.0000 1.0000
49.5500 297.0000 1.0000
49.5600 290.0000 1.0000
49.5700 313.0000 1.0000
49.5800 276.0000 1.0000
49.5900 290.0000 1.0000
49.6000 298.0000 1.0000
49.6100 265.0000 1.0000
49.6200 289.0000 1.0000
49.6300 299.0000 1.0000
49.6400 286.0000 1.0000
49.6500 287.0000 1.0000
49.6600 258.0000 1.0000
49.6700 304.0000 1.0000
49.6800 290.0000 1.0000
49.6900 289.0000 1.0000
49.7000 275.0000 1.0000
49.7100 315.0000 1.0000
49.7200 303.0000 1.0000
49.7300 310.0000 1.0000
49.7400 314.0000 1.0000
49.7500 290.0000 1.0000
49.7600 292.0000 1.0000
49.7700 292.0000 1.0000
49.7800 288.0000 1.0000
49.7900 277.0000 1.0000
49.8000 290.0000 1.0000
49.8100 290.0000 1.0000
49.8200 288.0000 1.0000
49.8300 281.0000 1.0000
49.8400 276.0000 1.0000
49.8500 316.0000 1.0000
49.8600 304.0000 1.0000
49.8700 308.0000 1.0000
49.8800 279.0000 1.0000
49.8900 302.0000 1.0000
49.9000 306.0000 1.0000
49.9100 288.0000 1.0000
49.9200 290.0000 1.0000
49.9300 290.0000 1.0000
49.9400 299.0000 1.0000
49.9500 266.0000 1.0000
49.9600 269.0000 1.0000
49.9700 305.0000 1.0000
49.9800 290.0000 1.0000
49.9900 321.0000 1.0000
50.0000 274.0000 1.0000
50.0100 275.0000 1.0000
50.0200 272.0000 1.0000
50.0300 289.0000 1.0000
50.0400 307.0000 1.0000
50.0500 284.0000 1.0000
50.0600 284.0000 1.0000
50.0700 299.0000 1.0000
50.0800 297.0000 1.0000
50.0900 299.0000 1.0000
50.1000 290.0000 1.0000
50.1100 287.0000 1.0000
50.1200 301.0000 1.0000
50.1300 302.0000 1.0000
50.1400 296.0000 1.0000
50.1500 312.0000 1.0000
50.1600 305.0000 1.0000
50.1700 283.0000 1.0000
50.1800 271.0000 1.0000
50.1900 291.0000 1.0000
50.2000 293.0000 1.0000
50.2100 275.0000 1.0000
50.2200 288.0000 1.0000
50.2300 305.0000 1.0000
50.2400 300.0000 1.0000
50.2500 275.0000 1.0000
50.2600 269.0000 1.0000
50.2700 292.0000 1.0000
50.2800 273.0000 1.0000
50.2900 278.0000 1.0000
50.3000 310.0000 1.0000
50.3100 309.0000 1.0000
50.3200 328.0000 1.0000
50.3300 297.0000 1.0000
50.3400 308.0000 1.0000
50.3500 278.0000 1.0000
50.3600 270.0000 1.0000
50.3700 285.0000 1.0000
50.3800 301.0000 1.0000
50.3900 295.0000 1.0000
50.4000 272.0000 1.0000
50.4100 284.0000 1.0000
50.4200 295.0000 1.0000
50.4300 301.0000 1.0000
50.4400 298.0000 1.0000
50.4500 265.0000 1.0000
50.4600 316.0000 1.0000
50.4700 298.0000 1.0000
50.4800 304.0000 1.0000
50.4900 274.0000 1.0000
50.5000 284.0000 1.0000
50.5100 304.0000 1.0000
50.5200 285.0000 1.0000
50.5300 292.0000 1.0000
50.5400 279.0000 1.0000
50.5500 310.0000 1.0000
50.5600 283.0000 1.0000
50.5700 270.0000 1.0000
50.5800 287.0000 1.0000
50.5900 292.0000 1.0000
50.6000 276.0000 1.0000
50.6100 289.0000 1.0000
50.6200 293.0000 1.0000
50.6300 281.0000 1.0000
50.6400 251.0000 1.0000
50.6500 275.0000 1.0000
50.6600 272.0000 1.0000
50.6700 298.0000 1.0000
50.6800 273.0000 1.0000
50.6900 288.0000 1.0000
50.7000 302.0000 1.0000
50.7100 285.0000 1.0000
50.7200 263.0000 1.0000
50.7300 293.0000 1.0000
50.7400 278.0000 1.0000
50.7500 302.0000 1.0000
50.7600 295.0000 1.0000
50.7700 284.0000 1.0000
50.7800 281.0000 1.0000
50.7900 276.0000 1.0000
50.8000 279.0000 1.0000
50.8100 282.0000 1.0000
50.8200 293.0000 1.0000
50.8300 316.0000 1.0000
50.8400 332.0000 1.0000
50.8500 281.0000 1.0000
50.8600 293.0000 1.0000
50.8700 286.0000 1.0000
50.8800 292.0000 1.0000
50.8900 299.0000 1.0000
50.9000 330.0000 1.0000
50.9100 313.0000 1.0000
50.9200 307.0000 1.0000
50.9300 307.0000 1.0000
50.9400 316.0000 1.0000
50.9500 310.0000 1.0000
50.9600 302.0000 1.0000
50.9700 331.0000 1.0000
50.9800 337.0000 1.0000
50.9900 295.0000 1.0000
51.0000 317.0000 1.0000
51.0100 285.0000 1.0000
51.0200 309.0000 1.0000
51.0300 318.0000 1.0000
51.0400 323.0000 1.0000
51.0500 320.0000 1.0000
51.0600 325.0000 1.0000
51.0700 329.0000 1.0000
51.0800 345.0000 1.0000
51.0900 350.0000 1.0000
51.1000 330.0000 1.0000
51.1100 327.0000 1.0000
51.1200 356.0000 1.0000
51.1300 354.0000 1.0000
51.1400 371.0000 1.0000
51.1500 382.0000 1.0000
51.1600 378.0000 1.0000
51.1700 374.0000 1.0000
51.1800 399.0000 1.0000
51.1900 445.0000 1.0000
51.2000 424.0000 1.0000
51.2100 431.0000 1.0000
51.2200 414.0000 1.0000
51.2300 453.0000 1.0000
51.2400 481.0000 1.0000
51.2500 510.0000 1.0000
51.2600 502.0000 1.0000
51.2700 539.0000 1.0000
51.2800 596.0000 1.0000
51.2900 627.0000 1.0000
51.3000 599.0000 1.0000
51.3100 644.0000 1.0000
51.3200 716.0000 1.0000
51.3300 737.0000 1.0000
51.3400 739.0000 1.0000
51.3500 811.0000 1.0000
51.3600 903.0000 1.0000
51.3700 977.0000 1.0000
51.3800 1032.0000 1.0000
51.3900 1146.0000 1.0000
51.4000 1203.0000 1.0000
51.4100 1328.0000 1.0000
51.4200 1424.0000 1.0000
51.4300 1494.0000 1.0000
51.4400 1611.0000 1.0000
51.4500 1685.0000 1.0000
51.4600 1870.0000 1.0000
51.4700 1869.0000 1.0000
51.4800 1905.0000 1.0000
51.4900 2053.0000 1.0000
51.5000 2198.0000 1.0000
51.5100 2072.0000 1.0000
51.5200 2059.0000 1.0000
51.5300 2046.0000 1.0000
51.5400 1931.0000 1.0000
51.5500 1874.0000 1.0000
51.5600 1822.0000 1.0000
51.5700 1781.0000 1.0000
51.5800 1687.0000 1.0000
51.5900 1664.0000 1.0000
51.6000 1571.0000 1.0000
51.6100 1568.0000 1.0000
51.6200 1557.0000 1.0000
51.6300 1492.0000 1.0000
51.6400 1460.0000 1.0000
51.6500 1353.0000 1.0000
51.6600 1272.0000 1.0000
51.6700 1231.0000 1.0000
51.6800 1168.0000 1.0000
51.6900 1066.0000 1.0000
51.7000 1020.0000 1.0000
51.7100 938.0000 1.0000
51.7200 885.0000 1.0000
51.7300 778.0000 1.0000
51.7400 745.0000 1.0000
51.7500 698.0000 1.0000
51.7600 646.0000 1.0000
51.7700 619.0000 1.0000
51.7800 568.0000 1.0000
51.7900 592.0000 1.0000
51.8000 558.0000 1.0000
51.8100 538.0000 1.0000
51.8200 521.0000 1.0000
51.8300 497.0000 1.0000
51.8400 480.0000 1.0000
51.8500 459.0000 1.0000
51.8600 450.0000 1.0000
51.8700 443.0000 1.0000
51.8800 413.0000 1.0000
51.8900 397.0000 1.0000
51.9000 415.0000 1.0000
51.9100 393.0000 1.0000
51.9200 403.0000 1.0000
51.9300 375.0000 1.0000
51.9400 362.0000 1.0000
51.9500 384.0000 1.0000
51.9600 375.0000 1.0000
51.9700 365.0000 1.0000
51.9800 341.0000 1.0000
51.9900 348.0000 1.0000
52.0000 333.0000 1.0000
52.0100 312.0000 1.0000
52.0200 355.0000 1.0000
52.0300 353.0000 1.0000
52.0400 345.0000 1.0000
52.0500 337.0000 1.0000
52.0600 309.0000 1.0000
52.0700 326.0000 1.0000
52.0800 314.0000 1.0000
52.0900 325.0000 1.0000
52.1000 345.0000 1.0000
52.1100 337.0000 1.0000
52.1200 308.0000 1.0000
52.1300 310.0000 1.0000
52.1400 315.0000 1.0000
52.1500 283.0000 1.0000
52.1600 267.0000 1.0000
52.1700 317.0000 1.0000
52.1800 300.0000 1.0000
52.1900 322.0000 1.0000
52.2000 318.0000 1.0000
52.2100 335.0000 1.0000
52.2200 307.0000 1.0000
52.2300 305.0000 1.0000
52.2400 312.0000 1.0000
52.2500 305.0000 1.0000
52.2600 293.0000 1.0000
52.2700 306.0000 1.0000
52.2800 304.0000 1.0000
52.2900 305.0000 1.0000
52.3000 337.0000 1.0000
52.3100 299.0000 1.0000
52.3200 307.0000 1.0000
52.3300 300.0000 1.0000
52.3400 289.0000 1.0000
52.3500 274.0000 1.0000
52.3600 304.0000 1.0000
52.3700 294.0000 1.0000
52.3800 274.0000 1.0000
52.3900 305.0000 1.0000
52.4000 292.0000 1.0000
52.4100 308.0000 1.0000
52.4200 289.0000 1.0000
52.4300 290.0000 1.0000
52.4400 309.0000 1.0000
52.4500 293.0000 1.0000
52.4600 324.0000 1.0000
52.4700 294.0000 1.0000
52.4800 281.0000 1.0000
52.4900 260.0000 1.0000
52.5000 281.0000 1.0000
52.5100 285.0000 1.0000
52.5200 291.0000 1.0000
52.5300 301.0000 1.0000
52.5400 276.0000 1.0000
52.5500 268.0000 1.0000
52.5600 274.0000 1.0000
52.5700 287.0000 1.0000
52.5800 286.0000 1.0000
52.5900 292.0000 1.0000
52.6000 281.0000 1.0000
52.6100 283.0000 1.0000
52.6200 294.0000 1.0000
52.6300 273.0000 1.0000
52.6400 276.0000 1.0000
52.6500 290.0000 1.0000
52.6600 299.0000 1.0000
52.6700 300.0000 1.0000
52.6800 292.0000 1.0000
52.6900 298.0000 1.0000
52.7000 271.0000 1.0000
52.7100 294.0000 1.0000
52.7200 291.0000 1.0000
52.7300 276.0000 1.0000
52.7400 278.0000 1.0000
52.7500 280.0000 1.0000
52.7600 271.0000 1.0000
52.7700 273.0000 1.0000
52.7800 265.0000 1.0000
52.7900 267.0000 1.0000
52.8000 285.0000 1.0000
52.8100 297.0000 1.0000
52.8200 292.0000 1.0000
52.8300 253.0000 1.0000
52.8400 259.0000 1.0000
52.8500 281.0000 1.0000
52.8600 272.0000 1.0000
52.8700 284.0000 1.0000
52.8800 267.0000 1.0000
52.8900 277.0000 1.0000
52.9000 266.0000 1.0000
52.9100 296.0000 1.0000
52.9200 289.0000 1.0000
52.9300 291.0000 1.0000
52.9400 270.0000 1.0000
52.9500 292.0000 1.0000
52.9600 275.0000 1.0000
52.9700 293.0000 1.0000
52.9800 298.0000 1.0000
52.9900 291.0000 1.0000
53.0000 296.0000 1.0000
53.0100 292.0000 1.0000
53.0200 292.0000 1.0000
53.0300 295.0000 1.0000
53.0400 251.0000 1.0000
53.0500 263.0000 1.0000
53.0600 294.0000 1.0000
53.0700 287.0000 1.0000
53.0800 267.0000 1.0000
53.0900 279.0000 1.0000
53.1000 274.0000 1.0000
53.1100 283.0000 1.0000
53.1200 275.0000 1.0000
53.1300 283.0000 1.0000
53.1400 274.0000 1.0000
53.1500 295.0000 1.0000
53.1600 281.0000 1.0000
53.1700 282.0000 1.0000
53.1800 283.0000 1.0000
53.1900 277.0000 1.0000
53.2000 258.0000 1.0000
53.2100 255.0000 1.0000
53.2200 279.0000 1.0000
53.2300 292.0000 1.0000
53.2400 281.0000 1.0000
53.2500 292.0000 1.0000
53.2600 288.0000 1.0000
53.2700 281.0000 1.0000
53.2800 260.0000 1.0000
53.2900 268.0000 1.0000
53.3000 293.0000 1.0000
53.3100 274.0000 1.0000
53.3200 285.0000 1.0000
53.3300 259.0000 1.0000
53.3400 268.0000 1.0000
53.3500 278.0000 1.0000
53.3600 269.0000 1.0000
53.3700 286.0000 1.0000
53.3800 285.0000 1.0000
53.3900 268.0000 1.0000
53.4000 259.0000 1.0000
53.4100 278.0000 1.0000
53.4200 306.0000 1.0000
53.4300 287.0000 1.0000
53.4400 278.0000 1.0000
53.4500 276.0000 1.0000
53.4600 305.0000 1.0000
53.4700 291.0000 1.0000
53.4800 284.0000 1.0000
53.4900 263.0000 1.0000
53.5000 266.0000 1.0000
53.5100 288.0000 1.0000
53.5200 293.0000 1.0000
53.5300 309.0000 1.0000
53.5400 270.0000 1.0000
53.5500 270.0000 1.0000
53.5600 270.0000 1.0000
53.5700 281.0000 1.0000
53.5800 280.0000 1.0000
53.5900 268.0000 1.0000
53.6000 273.0000 1.0000
53.6100 264.0000 1.0000
53.6200 266.0000 1.0000
53.6300 286.0000 1.0000
53.6400 276.0000 1.0000
53.6500 268.0000 1.0000
53.6600 282.0000 1.0000
53.6700 265.0000 1.0000
53.6800 283.0000 1.0000
53.6900 275.0000 1.0000
53.7000 289.0000 1.0000
53.7100 285.0000 1.0000
53.7200 267.0000 1.0000
53.7300 276.0000 1.0000
53.7400 294.0000 1.0000
53.7500 257.0000 1.0000
53.7600 288.0000 1.0000
53.7700 276.0000 1.0000
53.7800 287.0000 1.0000
53.7900 286.0000 1.0000
53.8000 265.0000 1.0000
53.8100 279.0000 1.0000
53.8200 278.0000 1.0000
53.8300 295.0000 1.0000
53.8400 266.0000 1.0000
53.8500 269.0000 1.0000
53.8600 296.0000 1.0000
53.8700 290.0000 1.0000
53.8800 288.0000 1.0000
53.8900 258.0000 1.0000
53.9000 308.0000 1.0000
53.9100 276.0000 1.0000
53.9200 273.0000 1.0000
53.9300 298.0000 1.0000
53.9400 311.0000 1.0000
53.9500 310.0000 1.0000
53.9600 274.0000 1.0000
53.9700 295.0000 1.0000
53.9800 293.0000 1.0000
53.9900 278.0000 1.0000
54.0000 310.0000 1.0000
54.0100 303.0000 1.0000
54.0200 320.0000 1.0000
54.0300 302.0000 1.0000
54.0400 313.0000 1.0000
54.0500 280.0000 1.0000
54.0600 277.0000 1.0000
54.0700 324.0000 1.0000
54.0800 322.0000 1.0000
54.0900 277.0000 1.0000
54.1000 299.0000 1.0000
54.1100 284.0000 1.0000
54.1200 310.0000 1.0000
54.1300 301.0000 1.0000
54.1400 292.0000 1.0000
54.1500 292.0000 1.0000
54.1600 315.0000 1.0000
54.1700 303.0000 1.0000
54.1800 298.0000 1.0000
54.1900 309.0000 1.0000
54.2000 310.0000 1.0000
54.2100 308.0000 1.0000
54.2200 301.0000 1.0000
54.2300 299.0000 1.0000
54.2400 287.0000 1.0000
54.2500 300.0000 1.0000
54.2600 301.0000 1.0000
54.2700 309.0000 1.0000
54.2800 312.0000 1.0000
54.2900 300.0000 1.0000
54.3000 327.0000 1.0000
54.3100 301.0000 1.0000
54.3200 337.0000 1.0000
54.3300 296.0000 1.0000
54.3400 327.0000 1.0000
54.3500 350.0000 1.0000
54.3600 346.0000 1.0000
54.3700 352.0000 1.0000
54.3800 364.0000 1.0000
54.3900 348.0000 1.0000
54.4000 376.0000 1.0000
54.4100 354.0000 1.0000
54.4200 357.0000 1.0000
54.4300 374.0000 1.0000
54.4400 370.0000 1.0000
54.4500 336.0000 1.0000
54.4600 372.0000 1.0000
54.4700 382.0000 1.0000
54.4800 380.0000 1.0000
54.4900 400.0000 1.0000
54.5000 400.0000 1.0000
54.5100 422.0000 1.0000
54.5200 425.0000 1.0000
54.5300 409.0000 1.0000
54.5400 400.0000 1.0000
54.5500 394.0000 1.0000
54.5600 397.0000 1.0000
54.5700 398.0000 1.0000
54.5800 430.0000 1.0000
54.5900 360.0000 1.0000
54.6000 397.0000 1.0000
54.6100 392.0000 1.0000
54.6200 382.0000 1.0000
54.6300 372.0000 1.0000
54.6400 384.0000 1.0000
54.6500 400.0000 1.0000
54.6600 380.0000 1.0000
54.6700 352.0000 1.0000
54.6800 364.0000 1.0000
54.6900 361.0000 1.0000
54.7000 373.0000 1.0000
54.7100 357.0000 1.0000
54.7200 360.0000 1.0000
54.7300 339.0000 1.0000
54.7400 357.0000 1.0000
54.7500 317.0000 1.0000
54.7600 339.0000 1.0000
54.7700 346.0000 1.0000
54.7800 349.0000 1.0000
54.7900 328.0000 1.0000
54.8000 314.0000 1.0000
54.8100 284.0000 1.0000
54.8200 304.0000 1.0000
54.8300 275.0000 1.0000
54.8400 301.0000 1.0000
54.8500 311.0000 1.0000
54.8600 295.0000 1.0000
54.8700 291.0000 1.0000
54.8800 301.0000 1.0000
54.8900 285.0000 1.0000
54.9000 302.0000 1.0000
54.9100 311.0000 1.0000
54.9200 301.0000 1.0000
54.9300 282.0000 1.0000
54.9400 304.0000 1.0000
54.9500 297.0000 1.0000
54.9600 284.0000 1.0000
54.9700 327.0000 1.0000
54.9800 286.0000 1.0000
54.9900 288.0000 1.0000
55.0000 254.0000 1.0000
55.0100 285.0000 1.0000
55.0200 282.0000 1.0000
55.0300 277.0000 1.0000
55.0400 278.0000 1.0000
55.0500 271.0000 1.0000
55.0600 267.0000 1.0000
55.0700 262.0000 1.0000
55.0800 274.0000 1.0000
55.0900 301.0000 1.0000
55.1000 289.0000 1.0000
55.1100 290.0000 1.0000
55.1200 251.0000 1.0000
55.1300 297.0000 1.0000
55.1400 273.0000 1.0000
55.1500 274.0000 1.0000
55.1600 267.0000 1.0000
55.1700 254.0000 1.0000
55.1800 278.0000 1.0000
55.1900 283.0000 1.0000
55.2000 256.0000 1.0000
55.2100 268.0000 1.0000
55.2200 275.0000 1.0000
55.2300 272.0000 1.0000
55.2400 283.0000 1.0000
55.2500 277.0000 1.0000
55.2600 259.0000 1.0000
55.2700 263.0000 1.0000
55.2800 301.0000 1.0000
55.2900 249.0000 1.0000
55.3000 305.0000 1.0000
55.3100 275.0000 1.0000
55.3200 262.0000 1.0000
55.3300 277.0000 1.0000
55.3400 303.0000 1.0000
55.3500 275.0000 1.0000
55.3600 271.0000 1.0000
55.3700 276.0000 1.0000
55.3800 271.0000 1.0000
55.3900 275.0000 1.0000
55.4000 285.0000 1.0000
55.4100 268.0000 1.0000
55.4200 261.0000 1.0000
55.4300 277.0000 1.0000
55.4400 267.0000 1.0000
55.4500 268.0000 1.0000
55.4600 274.0000 1.0000
55.4700 255.0000 1.0000
55.4800 251.0000 1.0000
55.4900 303.0000 1.0000
55.5000 270.0000 1.0000
55.5100 243.0000 1.0000
55.5200 279.0000 1.0000
55.5300 284.0000 1.0000
55.5400 274.0000 1.0000
55.5500 275.0000 1.0000
55.5600 266.0000 1.0000
55.5700 315.0000 1.0000
55.5800 278.0000 1.0000
55.5900 283.0000 1.0000
55.6000 262.0000 1.0000
55.6100 270.0000 1.0000
55.6200 282.0000 1.0000
55.6300 268.0000 1.0000
55.6400 300.0000 1.0000
55.6500 273.0000 1.0000
55.6600 276.0000 1.0000
55.6700 270.0000 1.0000
55.6800 286.0000 1.0000
55.6900 270.0000 1.0000
55.7000 286.0000 1.0000
55.7100 282.0000 1.0000
55.7200 265.0000 1.0000
55.7300 262.0000 1.0000
55.7400 305.0000 1.0000
55.7500 270.0000 1.0000
55.7600 272.0000 1.0000
55.7700 269.0000 1.0000
55.7800 259.0000 1.0000
55.7900 265.0000 1.0000
55.8000 249.0000 1.0000
55.8100 291.0000 1.0000
55.8200 264.0000 1.0000
55.8300 276.0000 1.0000
55.8400 266.0000 1.0000
55.8500 258.0000 1.0000
55.8600 266.0000 1.0000
55.8700 281.0000 1.0000
55.8800 278.0000 1.0000
55.8900 263.0000 1.0000
55.9000 242.0000 1.0000
55.9100 259.0000 1.0000
55.9200 256.0000 1.0000
55.9300 255.0000 1.0000
55.9400 261.0000 1.0000
55.9500 264.0000 1.0000
55.9600 259.0000 1.0000
55.9700 285.0000 1.0000
55.9800 263.0000 1.0000
55.9900 257.0000 1.0000
56.0000 287.0000 1.0000
56.0100 278.0000 1.0000
56.0200 259.0000 1.0000
56.0300 261.0000 1.0000
56.0400 265.0000 1.0000
56.0500 278.0000 1.0000
56.0600 275.0000 1.0000
56.0700 281.0000 1.0000
56.0800 251.0000 1.0000
56.0900 263.0000 1.0000
56.1000 260.0000 1.0000
56.1100 261.0000 1.0000
56.1200 277.0000 1.0000
56.1300 270.0000 1.0000
56.1400 278.0000 1.0000
56.1500 242.0000 1.0000
56.1600 266.0000 1.0000
56.1700 244.0000 1.0000
56.1800 264.0000 1.0000
56.1900 265.0000 1.0000
56.2000 260.0000 1.0000
56.2100 260.0000 1.0000
56.2200 267.0000 1.0000
56.2300 249.0000 1.0000
56.2400 280.0000 1.0000
56.2500 266.0000 1.0000
56.2600 266.0000 1.0000
56.2700 265.0000 1.0000
56.2800 262.0000 1.0000
56.2900 256.0000 1.0000
56.3000 280.0000 1.0000
56.3100 273.0000 1.0000
56.3200 257.0000 1.0000
56.3300 259.0000 1.0000
56.3400 261.0000 1.0000
56.3500 252.0000 1.0000
56.3600 214.0000 1.0000
56.3700 266.0000 1.0000
56.3800 256.0000 1.0000
56.3900 266.0000 1.0000
56.4000 258.0000 1.0000
56.4100 263.0000 1.0000
56.4200 271.0000 1.0000
56.4300 258.0000 1.0000
56.4400 249.0000 1.0000
56.4500 264.0000 1.0000
56.4600 262.0000 1.0000
56.4700 273.0000 1.0000
56.4800 272.0000 1.0000
56.4900 270.0000 1.0000
56.5000 277.0000 1.0000
56.5100 283.0000 1.0000
56.5200 266.0000 1.0000
56.5300 275.0000 1.0000
56.5400 276.0000 1.0000
56.5500 251.0000 1.0000
56.5600 277.0000 1.0000
56.5700 263.0000 1.0000
56.5800 255.0000 1.0000
56.5900 302.0000 1.0000
56.6000 270.0000 1.0000
56.6100 274.0000 1.0000
56.6200 260.0000 1.0000
56.6300 284.0000 1.0000
56.6400 258.0000 1.0000
56.6500 279.0000 1.0000
56.6600 263.0000 1.0000
56.6700 257.0000 1.0000
56.6800 258.0000 1.0000
56.6900 261.0000 1.0000
56.7000 248.0000 1.0000
56.7100 254.0000 1.0000
56.7200 272.0000 1.0000
56.7300 271.0000 1.0000
56.7400 236.0000 1.0000
56.7500 253.0000 1.0000
56.7600 263.0000 1.0000
56.7700 251.0000 1.0000
56.7800 263.0000 1.0000
56.7900 261.0000 1.0000
56.8000 263.0000 1.0000
56.8100 294.0000 1.0000
56.8200 256.0000 1.0000
56.8300 262.0000 1.0000
56.8400 241.0000 1.0000
56.8500 252.0000 1.0000
56.8600 259.0000 1.0000
56.8700 273.0000 1.0000
56.8800 266.0000 1.0000
56.8900 293.0000 1.0000
56.9000 266.0000 1.0000
56.9100 258.0000 1.0000
56.9200 245.0000 1.0000
56.9300 248.0000 1.0000
56.9400 270.0000 1.0000
56.9500 279.0000 1.0000
56.9600 262.0000 1.0000
56.9700 236.0000 1.0000
56.9800 255.0000 1.0000
56.9900 262.0000 1.0000
57.0000 247.0000 1.0000
57.0100 253.0000 1.0000
57.0200 247.0000 1.0000
57.0300 295.0000 1.0000
57.0400 276.0000 1.0000
57.0500 293.0000 1.0000
57.0600 270.0000 1.0000
57.0700 280.0000 1.0000
57.0800 277.0000 1.0000
57.0900 290.0000 1.0000
57.1000 258.0000 1.0000
57.1100 248.0000 1.0000
57.1200 256.0000 1.0000
57.1300 261.0000 1.0000
57.1400 254.0000 1.0000
57.1500 250.0000 1.0000
57.1600 246.0000 1.0000
57.1700 269.0000 1.0000
57.1800 267.0000 1.0000
57.1900 288.0000 1.0000
57.2000 276.0000 1.0000
57.2100 277.0000 1.0000
57.2200 250.0000 1.0000
57.2300 274.0000 1.0000
57.2400 252.0000 1.0000
57.2500 258.0000 1.0000
57.2600 277.0000 1.0000
57.2700 234.0000 1.0000
57.2800 268.0000 1.0000
57.2900 278.0000 1.0000
57.3000 276.0000 1.0000
57.3100 291.0000 1.0000
57.3200 268.0000 1.0000
57.3300 268.0000 1.0000
57.3400 272.0000 1.0000
57.3500 266.0000 1.0000
57.3600 283.0000 1.0000
57.3700 271.0000 1.0000
57.3800 253.0000 1.0000
57.3900 239.0000 1.0000
57.4000 280.0000 1.0000
57.4100 240.0000 1.0000
57.4200 264.0000 1.0000
57.4300 298.0000 1.0000
57.4400 274.0000 1.0000
57.4500 267.0000 1.0000
57.4600 243.0000 1.0000
57.4700 246.0000 1.0000
57.4800 254.0000 1.0000
57.4900 273.0000 1.0000
57.5000 295.0000 1.0000
57.5100 262.0000 1.0000
57.5200 292.0000 1.0000
57.5300 279.0000 1.0000
57.5400 284.0000 1.0000
57.5500 276.0000 1.0000
57.5600 250.0000 1.0000
57.5700 275.0000 1.0000
57.5800 266.0000 1.0000
57.5900 278.0000 1.0000
57.6000 258.0000 1.0000
57.6100 246.0000 1.0000
57.6200 281.0000 1.0000
57.6300 289.0000 1.0000
57.6400 280.0000 1.0000
57.6500 278.0000 1.0000
57.6600 287.0000 1.0000
57.6700 266.0000 1.0000
57.6800 238.0000 1.0000
57.6900 279.0000 1.0000
57.7000 277.0000 1.0000
57.7100 267.0000 1.0000
57.7200 274.0000 1.0000
57.7300 256.0000 1.0000
57.7400 266.0000 1.0000
57.7500 288.0000 1.0000
57.7600 275.0000 1.0000
57.7700 272.0000 1.0000
57.7800 242.0000 1.0000
57.7900 272.0000 1.0000
57.8000 264.0000 1.0000
57.8100 254.0000 1.0000
57.8200 283.0000 1.0000
57.8300 247.0000 1.0000
57.8400 267.0000 1.0000
57.8500 246.0000 1.0000
57.8600 250.0000 1.0000
57.8700 252.0000 1.0000
57.8800 247.0000 1.0000
57.8900 255.0000 1.0000
57.9000 275.0000 1.0000
57.9100 285.0000 1.0000
57.9200 274.0000 1.0000
57.9300 256.0000 1.0000
57.9400 292.0000 1.0000
57.9500 245.0000 1.0000
57.9600 248.0000 1.0000
57.9700 267.0000 1.0000
57.9800 267.0000 1.0000
57.9900 259.0000 1.0000
58.0000 263.0000 1.0000
58.0100 297.0000 1.0000
58.0200 268.0000 1.0000
58.0300 279.0000 1.0000
58.0400 244.0000 1.0000
58.0500 261.0000 1.0000
58.0600 252.0000 1.0000
58.0700 258.0000 1.0000
58.0800 256.0000 1.0000
58.0900 218.0000 1.0000
58.1000 277.0000 1.0000
58.1100 268.0000 1.0000
58.1200 274.0000 1.0000
58.1300 250.0000 1.0000
58.1400 271.0000 1.0000
58.1500 275.0000 1.0000
58.1600 254.0000 1.0000
58.1700 272.0000 1.0000
58.1800 252.0000 1.0000
58.1900 236.0000 1.0000
58.2000 268.0000 1.0000
58.2100 278.0000 1.0000
58.2200 274.0000 1.0000
58.2300 267.0000 1.0000
58.2400 264.0000 1.0000
58.2500 265.0000 1.0000
58.2600 285.0000 1.0000
58.2700 273.0000 1.0000
58.2800 273.0000 1.0000
58.2900 278.0000 1.0000
58.3000 273.0000 1.0000
58.3100 280.0000 1.0000
58.3200 253.0000 1.0000
58.3300 259.0000 1.0000
58.3400 260.0000 1.0000
58.3500 267.0000 1.0000
58.3600 250.0000 1.0000
58.3700 250.0000 1.0000
58.3800 263.0000 1.0000
58.3900 268.0000 1.0000
58.4000 245.0000 1.0000
58.4100 245.0000 1.0000
58.4200 275.0000 1.0000
58.4300 261.0000 1.0000
58.4400 280.0000 1.0000
58.4500 261.0000 1.0000
58.4600 270.0000 1.0000
58.4700 267.0000 1.0000
58.4800 251.0000 1.0000
58.4900 264.0000 1.0000
58.5000 272.0000 1.0000
58.5100 263.0000 1.0000
58.5200 288.0000 1.0000
58.5300 261.0000 1.0000
58.5400 267.0000 1.0000
58.5500 242.0000 1.0000
58.5600 250.0000 1.0000
58.5700 279.0000 1.0000
58.5800 258.0000 1.0000
58.5900 265.0000 1.0000
58.6000 266.0000 1.0000
58.6100 257.0000 1.0000
58.6200 251.0000 1.0000
58.6300 248.0000 1.0000
58.6400 279.0000 1.0000
58.6500 260.0000 1.0000
58.6600 236.0000 1.0000
58.6700 238.0000 1.0000
58.6800 273.0000 1.0000
58.6900 248.0000 1.0000
58.7000 271.0000 1.0000
58.7100 254.0000 1.0000
58.7200 257.0000 1.0000
58.7300 264.0000 1.0000
58.7400 279.0000 1.0000
58.7500 257.0000 1.0000
58.7600 274.0000 1.0000
58.7700 243.0000 1.0000
58.7800 247.0000 1.0000
58.7900 251.0000 1.0000
58.8000 274.0000 1.0000
58.8100 249.0000 1.0000
58.8200 273.0000 1.0000
58.8300 251.0000 1.0000
58.8400 272.0000 1.0000
58.8500 248.0000 1.0000
58.8600 243.0000 1.0000
58.8700 288.0000 1.0000
58.8800 285.0000 1.0000
58.8900 268.0000 1.0000
58.9000 269.0000 1.0000
58.9100 265.0000 1.0000
58.9200 249.0000 1.0000
58.9300 241.0000 1.0000
58.9400 255.0000 1.0000
58.9500 266.0000 1.0000
58.9600 281.0000 1.0000
58.9700 274.0000 1.0000
58.9800 263.0000 1.0000
58.9900 229.0000 1.0000
59.0000 244.0000 1.0000
59.0100 300.0000 1.0000
59.0200 268.0000 1.0000
59.0300 272.0000 1.0000
59.0400 277.0000 1.0000
59.0500 263.0000 1.0000
59.0600 256.0000 1.0000
59.0700 262.0000 1.0000
59.0800 252.0000 1.0000
59.0900 255.0000 1.0000
59.1000 251.0000 1.0000
59.1100 268.0000 1.0000
59.1200 265.0000 1.0000
59.1300 258.0000 1.0000
59.1400 260.0000 1.0000
59.1500 272.0000 1.0000
59.1600 262.0000 1.0000
59.1700 251.0000 1.0000
59.1800 249.0000 1.0000
59.1900 252.0000 1.0000
59.2000 262.0000 1.0000
59.2100 252.0000 1.0000
59.2200 257.0000 1.0000
59.2300 236.0000 1.0000
59.2400 241.0000 1.0000
59.2500 265.0000 1.0000
59.2600 275.0000 1.0000
59.2700 257.0000 1.0000
59.2800 249.0000 1.0000
59.2900 242.0000 1.0000
59.3000 257.0000 1.0000
59.3100 278.0000 1.0000
59.3200 253.0000 1.0000
59.3300 255.0000 1.0000
59.3400 251.0000 1.0000
59.3500 268.0000 1.0000
59.3600 254.0000 1.0000
59.3700 268.0000 1.0000
59.3800 257.0000 1.0000
59.3900 267.0000 1.0000
59.4000 292.0000 1.0000
59.4100 251.0000 1.0000
59.4200 246.0000 1.0000
59.4300 258.0000 1.0000
59.4400 256.0000 1.0000
59.4500 264.0000 1.0000
59.4600 254.0000 1.0000
59.4700 256.0000 1.0000
59.4800 275.0000 1.0000
59.4900 263.0000 1.0000
59.5000 301.0000 1.0000
59.5100 278.0000 1.0000
59.5200 274.0000 1.0000
59.5300 248.0000 1.0000
59.5400 263.0000 1.0000
59.5500 249.0000 1.0000
59.5600 258.0000 1.0000
59.5700 273.0000 1.0000
59.5800 267.0000 1.0000
59.5900 264.0000 1.0000
59.6000 249.0000 1.0000
59.6100 251.0000 1.0000
59.6200 242.0000 1.0000
59.6300 266.0000 1.0000
59.6400 254.0000 1.0000
59.6500 274.0000 1.0000
59.6600 237.0000 1.0000
59.6700 256.0000 1.0000
59.6800 243.0000 1.0000
59.6900 261.0000 1.0000
59.7000 247.0000 1.0000
59.7100 262.0000 1.0000
59.7200 256.0000 1.0000
59.7300 272.0000 1.0000
59.7400 248.0000 1.0000
59.7500 239.0000 1.0000
59.7600 258.0000 1.0000
59.7700 261.0000 1.0000
59.7800 285.0000 1.0000
59.7900 284.0000 1.0000
59.8000 273.0000 1.0000
59.8100 273.0000 1.0000
59.8200 255.0000 1.0000
59.8300 264.0000 1.0000
59.8400 242.0000 1.0000
59.8500 238.0000 1.0000
59.8600 255.0000 1.0000
59.8700 236.0000 1.0000
59.8800 245.0000 1.0000
59.8900 241.0000 1.0000
59.9000 238.0000 1.0000
59.9100 253.0000 1.0000
59.9200 263.0000 1.0000
59.9300 265.0000 1.0000
59.9400 259.0000 1.0000
59.9500 252.0000 1.0000
59.9600 255.0000 1.0000
59.9700 268.0000 1.0000
59.9800 245.0000 1.0000
59.9900 251.0000 1.0000
60.0000 250.0000 1.0000
60.0100 257.0000 1.0000
60.0200 264.0000 1.0000
60.0300 271.0000 1.0000
60.0400 262.0000 1.0000
60.0500 271.0000 1.0000
60.0600 278.0000 1.0000
60.0700 254.0000 1.0000
60.0800 259.0000 1.0000
60.0900 244.0000 1.0000
60.1000 252.0000 1.0000
60.1100 269.0000 1.0000
60.1200 261.0000 1.0000
60.1300 246.0000 1.0000
60.1400 259.0000 1.0000
60.1500 243.0000 1.0000
60.1600 245.0000 1.0000
60.1700 273.0000 1.0000
60.1800 274.0000 1.0000
60.1900 285.0000 1.0000
60.2000 248.0000 1.0000
60.2100 258.0000 1.0000
60.2200 275.0000 1.0000
60.2300 260.0000 1.0000
60.2400 255.0000 1.0000
60.2500 255.0000 1.0000
60.2600 276.0000 1.0000
60.2700 259.0000 1.0000
60.2800 253.0000 1.0000
60.2900 261.0000 1.0000
60.3000 276.0000 1.0000
60.3100 252.0000 1.0000
60.3200 239.0000 1.0000
60.3300 251.0000 1.0000
60.3400 280.0000 1.0000
60.3500 280.0000 1.0000
60.3600 248.0000 1.0000
60.3700 268.0000 1.0000
60.3800 251.0000 1.0000
60.3900 241.0000 1.0000
60.4000 253.0000 1.0000
60.4100 258.0000 1.0000
60.4200 250.0000 1.0000
60.4300 251.0000 1.0000
60.4400 274.0000 1.0000
60.4500 271.0000 1.0000
60.4600 277.0000 1.0000
60.4700 251.0000 1.0000
60.4800 258.0000 1.0000
60.4900 263.0000 1.0000
60.5000 243.0000 1.0000
60.5100 254.0000 1.0000
60.5200 290.0000 1.0000
60.5300 249.0000 1.0000
60.5400 280.0000 1.0000
60.5500 248.0000 1.0000
60.5600 255.0000 1.0000
60.5700 250.0000 1.0000
60.5800 266.0000 1.0000
60.5900 268.0000 1.0000
60.6000 259.0000 1.0000
60.6100 252.0000 1.0000
60.6200 299.0000 1.0000
60.6300 261.0000 1.0000
60.6400 269.0000 1.0000
60.6500 263.0000 1.0000
60.6600 272.0000 1.0000
60.6700 265.0000 1.0000
60.6800 254.0000 1.0000
60.6900 273.0000 1.0000
60.7000 272.0000 1.0000
60.7100 287.0000 1.0000
60.7200 253.0000 1.0000
60.7300 279.0000 1.0000
60.7400 245.0000 1.0000
60.7500 276.0000 1.0000
60.7600 248.0000 1.0000
60.7700 259.0000 1.0000
60.7800 271.0000 1.0000
60.7900 247.0000 1.0000
60.8000 262.0000 1.0000
60.8100 271.0000 1.0000
60.8200 267.0000 1.0000
60.8300 245.0000 1.0000
60.8400 269.0000 1.0000
60.8500 260.0000 1.0000
60.8600 254.0000 1.0000
60.8700 243.0000 1.0000
60.8800 240.0000 1.0000
60.8900 256.0000 1.0000
60.9000 276.0000 1.0000
60.9100 275.0000 1.0000
60.9200 287.0000 1.0000
60.9300 273.0000 1.0000
60.9400 273.0000 1.0000
60.9500 282.0000 1.0000
60.9600 296.0000 1.0000
60.9700 262.0000 1.0000
60.9800 255.0000 1.0000
60.9900 266.0000 1.0000
61.0000 271.0000 1.0000
61.0100 257.0000 1.0000
61.0200 258.0000 1.0000
61.0300 251.0000 1.0000
61.0400 255.0000 1.0000
61.0500 290.0000 1.0000
61.0600 277.0000 1.0000
61.0700 281.0000 1.0000
61.0800 304.0000 1.0000
61.0900 315.0000 1.0000
61.1000 292.0000 1.0000
61.1100 291.0000 1.0000
61.1200 291.0000 1.0000
61.1300 308.0000 1.0000
61.1400 284.0000 1.0000
61.1500 270.0000 1.0000
61.1600 307.0000 1.0000
61.1700 313.0000 1.0000
61.1800 296.0000 1.0000
61.1900 280.0000 1.0000
61.2000 311.0000 1.0000
61.2100 304.0000 1.0000
61.2200 304.0000 1.0000
61.2300 305.0000 1.0000
61.2400 313.0000 1.0000
61.2500 302.0000 1.0000
61.2600 315.0000 1.0000
61.2700 335.0000 1.0000
61.2800 355.0000 1.0000
61.2900 312.0000 1.0000
61.3000 325.0000 1.0000
61.3100 352.0000 1.0000
61.3200 386.0000 1.0000
61.3300 390.0000 1.0000
61.3400 377.0000 1.0000
61.3500 394.0000 1.0000
61.3600 410.0000 1.0000
61.3700 408.0000 1.0000
61.3800 426.0000 1.0000
61.3900 438.0000 1.0000
61.4000 437.0000 1.0000
61.4100 404.0000 1.0000
61.4200 443.0000 1.0000
61.4300 463.0000 1.0000
61.4400 469.0000 1.0000
61.4500 560.0000 1.0000
61.4600 514.0000 1.0000
61.4700 479.0000 1.0000
61.4800 534.0000 1.0000
61.4900 555.0000 1.0000
61.5000 551.0000 1.0000
61.5100 575.0000 1.0000
61.5200 527.0000 1.0000
61.5300 536.0000 1.0000
61.5400 525.0000 1.0000
61.5500 546.0000 1.0000
61.5600 533.0000 1.0000
61.5700 575.0000 1.0000
61.5800 542.0000 1.0000
61.5900 559.0000 1.0000
61.6000 580.0000 1.0000
61.6100 534.0000 1.0000
61.6200 523.0000 1.0000
61.6300 542.0000 1.0000
61.6400 523.0000 1.0000
61.6500 541.0000 1.0000
61.6600 524.0000 1.0000
61.6700 564.0000 1.0000
61.6800 490.0000 1.0000
61.6900 500.0000 1.0000
61.7000 507.0000 1.0000
61.7100 490.0000 1.0000
61.7200 486.0000 1.0000
61.7300 479.0000 1.0000
61.7400 489.0000 1.0000
61.7500 473.0000 1.0000
61.7600 452.0000 1.0000
61.7700 453.0000 1.0000
61.7800 411.0000 1.0000
61.7900 430.0000 1.0000
61.8000 422.0000 1.0000
61.8100 386.0000 1.0000
61.8200 391.0000 1.0000
61.8300 407.0000 1.0000
61.8400 373.0000 1.0000
61.8500 371.0000 1.0000
61.8600 364.0000 1.0000
61.8700 371.0000 1.0000
61.8800 369.0000 1.0000
61.8900 384.0000 1.0000
61.9000 338.0000 1.0000
61.9100 318.0000 1.0000
61.9200 340.0000 1.0000
61.9300 322.0000 1.0000
61.9400 293.0000 1.0000
61.9500 342.0000 1.0000
61.9600 326.0000 1.0000
61.9700 307.0000 1.0000
61.9800 337.0000 1.0000
61.9900 297.0000 1.0000
62.0000 317.0000 1.0000
62.0100 275.0000 1.0000
62.0200 340.0000 1.0000
62.0300 318.0000 1.0000
62.0400 312.0000 1.0000
62.0500 307.0000 1.0000
62.0600 292.0000 1.0000
62.0700 291.0000 1.0000
62.0800 315.0000 1.0000
62.0900 313.0000 1.0000
62.1000 300.0000 1.0000
62.1100 298.0000 1.0000
62.1200 284.0000 1.0000
62.1300 296.0000 1.0000
62.1400 274.0000 1.0000
62.1500 285.0000 1.0000
62.1600 287.0000 1.0000
62.1700 256.0000 1.0000
62.1800 290.0000 1.0000
62.1900 291.0000 1.0000
62.2000 275.0000 1.0000
62.2100 281.0000 1.0000
62.2200 299.0000 1.0000
62.2300 278.0000 1.0000
62.2400 286.0000 1.0000
62.2500 275.0000 1.0000
62.2600 271.0000 1.0000
62.2700 284.0000 1.0000
62.2800 266.0000 1.0000
62.2900 282.0000 1.0000
62.3000 286.0000 1.0000
62.3100 301.0000 1.0000
62.3200 275.0000 1.0000
62.3300 294.0000 1.0000
62.3400 257.0000 1.0000
62.3500 274.0000 1.0000
62.3600 267.0000 1.0000
62.3700 324.0000 1.0000
62.3800 278.0000 1.0000
62.3900 291.0000 1.0000
62.4000 301.0000 1.0000
62.4100 272.0000 1.0000
62.4200 284.0000 1.0000
62.4300 268.0000 1.0000
62.4400 299.0000 1.0000
62.4500 299.0000 1.0000
62.4600 317.0000 1.0000
62.4700 283.0000 1.0000
62.4800 300.0000 1.0000
62.4900 304.0000 1.0000
62.5000 257.0000 1.0000
62.5100 304.0000 1.0000
62.5200 289.0000 1.0000
62.5300 271.0000 1.0000
62.5400 267.0000 1.0000
62.5500 274.0000 1.0000
62.5600 274.0000 1.0000
62.5700 255.0000 1.0000
62.5800 281.0000 1.0000
62.5900 255.0000 1.0000
62.6000 295.0000 1.0000
62.6100 291.0000 1.0000
62.6200 286.0000 1.0000
62.6300 276.0000 1.0000
62.6400 278.0000 1.0000
62.6500 285.0000 1.0000
62.6600 296.0000 1.0000
62.6700 266.0000 1.0000
62.6800 257.0000 1.0000
62.6900 258.0000 1.0000
62.7000 264.0000 1.0000
62.7100 275.0000 1.0000
62.7200 272.0000 1.0000
62.7300 273.0000 1.0000
62.7400 292.0000 1.0000
62.7500 272.0000 1.0000
62.7600 267.0000 1.0000
62.7700 257.0000 1.0000
62.7800 239.0000 1.0000
62.7900 268.0000 1.0000
62.8000 271.0000 1.0000
62.8100 241.0000 1.0000
62.8200 232.0000 1.0000
62.8300 275.0000 1.0000
62.8400 278.0000 1.0000
62.8500 275.0000 1.0000
62.8600 253.0000 1.0000
62.8700 245.0000 1.0000
62.8800 269.0000 1.0000
62.8900 265.0000 1.0000
62.9000 238.0000 1.0000
62.9100 265.0000 1.0000
62.9200 249.0000 1.0000
62.9300 239.0000 1.0000
62.9400 259.0000 1.0000
62.9500 261.0000 1.0000
62.9600 272.0000 1.0000
62.9700 262.0000 1.0000
62.9800 259.0000 1.0000
62.9900 273.0000 1.0000
63.0000 274.0000 1.0000
63.0100 246.0000 1.0000
63.0200 268.0000 1.0000
63.0300 271.0000 1.0000
63.0400 258.0000 1.0000
63.0500 260.0000 1.0000
63.0600 263.0000 1.0000
63.0700 250.0000 1.0000
63.0800 233.0000 1.0000
63.0900 234.0000 1.0000
63.1000 254.0000 1.0000
63.1100 245.0000 1.0000
63.1200 260.0000 1.0000
63.1300 246.0000 1.0000
63.1400 266.0000 1.0000
63.1500 257.0000 1.0000
63.1600 262.0000 1.0000
63.1700 265.0000 1.0000
63.1800 266.0000 1.0000
63.1900 275.0000 1.0000
63.2000 252.0000 1.0000
63.2100 248.0000 1.0000
63.2200 277.0000 1.0000
63.2300 255.0000 1.0000
63.2400 236.0000 1.0000
63.2500 234.0000 1.0000
63.2600 281.0000 1.0000
63.2700 252.0000 1.0000
63.2800 274.0000 1.0000
63.2900 269.0000 1.0000
63.3000 270.0000 1.0000
63.3100 262.0000 1.0000
63.3200 276.0000 1.0000
63.3300 276.0000 1.0000
63.3400 260.0000 1.0000
63.3500 289.0000 1.0000
63.3600 272.0000 1.0000
63.3700 240.0000 1.0000
63.3800 245.0000 1.0000
63.3900 276.0000 1.0000
63.4000 264.0000 1.0000
63.4100 231.0000 1.0000
63.4200 251.0000 1.0000
63.4300 267.0000 1.0000
63.4400 237.0000 1.0000
63.4500 253.0000 1.0000
63.4600 285.0000 1.0000
63.4700 269.0000 1.0000
63.4800 286.0000 1.0000
63.4900 257.0000 1.0000
63.5000 253.0000 1.0000
63.5100 275.0000 1.0000
63.5200 279.0000 1.0000
63.5300 279.0000 1.0000
63.5400 252.0000 1.0000
63.5500 258.0000 1.0000
63.5600 243.0000 1.0000
63.5700 242.0000 1.0000
63.5800 270.0000 1.0000
63.5900 308.0000 1.0000
63.6000 289.0000 1.0000
63.6100 272.0000 1.0000
63.6200 266.0000 1.0000
63.6300 283.0000 1.0000
63.6400 247.0000 1.0000
63.6500 287.0000 1.0000
63.6600 279.0000 1.0000
63.6700 274.0000 1.0000
63.6800 252.0000 1.0000
63.6900 260.0000 1.0000
63.7000 279.0000 1.0000
63.7100 294.0000 1.0000
63.7200 317.0000 1.0000
63.7300 311.0000 1.0000
63.7400 268.0000 1.0000
63.7500 256.0000 1.0000
63.7600 308.0000 1.0000
63.7700 275.0000 1.0000
63.7800 319.0000 1.0000
63.7900 279.0000 1.0000
63.8000 272.0000 1.0000
63.8100 276.0000 1.0000
63.8200 285.0000 1.0000
63.8300 288.0000 1.0000
63.8400 311.0000 1.0000
63.8500 323.0000 1.0000
63.8600 340.0000 1.0000
63.8700 334.0000 1.0000
63.8800 341.0000 1.0000
63.8900 391.0000 1.0000
63.9000 369.0000 1.0000
63.9100 373.0000 1.0000
63.9200 385.0000 1.0000
63.9300 363.0000 1.0000
63.9400 376.0000 1.0000
63.9500 382.0000 1.0000
63.9600 399.0000 1.0000
63.9700 397.0000 1.0000
63.9800 397.0000 1.0000
63.9900 408.0000 1.0000
64.0000 382.0000 1.0000
64.0100 369.0000 1.0000
64.0200 376.0000 1.0000
64.0300 380.0000 1.0000
64.0400 376.0000 1.0000
64.0500 365.0000 1.0000
64.0600 373.0000 1.0000
64.0700 367.0000 1.0000
64.0800 311.0000 1.0000
64.0900 347.0000 1.0000
64.1000 373.0000 1.0000
64.1100 384.0000 1.0000
64.1200 352.0000 1.0000
64.1300 348.0000 1.0000
64.1400 360.0000 1.0000
64.1500 373.0000 1.0000
64.1600 334.0000 1.0000
64.1700 350.0000 1.0000
64.1800 343.0000 1.0000
64.1900 316.0000 1.0000
64.2000 317.0000 1.0000
64.2100 309.0000 1.0000
64.2200 310.0000 1.0000
64.2300 313.0000 1.0000
64.2400 323.0000 1.0000
64.2500 321.0000 1.0000
64.2600 315.0000 1.0000
64.2700 291.0000 1.0000
64.2800 288.0000 1.0000
64.2900 285.0000 1.0000
64.3000 284.0000 1.0000
64.3100 257.0000 1.0000
64.3200 269.0000 1.0000
64.3300 272.0000 1.0000
64.3400 263.0000 1.0000
64.3500 266.0000 1.0000
64.3600 325.0000 1.0000
64.3700 296.0000 1.0000
64.3800 282.0000 1.0000
64.3900 298.0000 1.0000
64.4000 272.0000 1.0000
64.4100 290.0000 1.0000
64.4200 294.0000 1.0000
64.4300 280.0000 1.0000
64.4400 257.0000 1.0000
64.4500 247.0000 1.0000
64.4600 247.0000 1.0000
64.4700 265.0000 1.0000
64.4800 258.0000 1.0000
64.4900 301.0000 1.0000
64.5000 294.0000 1.0000
64.5100 310.0000 1.0000
64.5200 299.0000 1.0000
64.5300 295.0000 1.0000
64.5400 272.0000 1.0000
64.5500 263.0000 1.0000
64.5600 262.0000 1.0000
64.5700 285.0000 1.0000
64.5800 256.0000 1.0000
64.5900 266.0000 1.0000
64.6000 278.0000 1.0000
64.6100 280.0000 1.0000
64.6200 272.0000 1.0000
64.6300 284.0000 1.0000
64.6400 281.0000 1.0000
64.6500 277.0000 1.0000
64.6600 285.0000 1.0000
64.6700 292.0000 1.0000
64.6800 280.0000 1.0000
64.6900 288.0000 1.0000
64.7000 267.0000 1.0000
64.7100 279.0000 1.0000
64.7200 281.0000 1.0000
64.7300 258.0000 1.0000
64.7400 271.0000 1.0000
64.7500 245.0000 1.0000
64.7600 252.0000 1.0000
64.7700 261.0000 1.0000
64.7800 268.0000 1.0000
64.7900 258.0000 1.0000
64.8000 275.0000 1.0000
64.8100 283.0000 1.0000
64.8200 287.0000 1.0000
64.8300 258.0000 1.0000
64.8400 278.0000 1.0000
64.8500 244.0000 1.0000
64.8600 263.0000 1.0000
64.8700 280.0000 1.0000
64.8800 274.0000 1.0000
64.8900 268.0000 1.0000
64.9000 262.0000 1.0000
64.9100 290.0000 1.0000
64.9200 265.0000 1.0000
64.9300 303.0000 1.0000
64.9400 272.0000 1.0000
64.9500 309.0000 1.0000
64.9600 288.0000 1.0000
64.9700 290.0000 1.0000
64.9800 307.0000 1.0000
64.9900 308.0000 1.0000
65.0000 278.0000 1.0000
65.0100 264.0000 1.0000
65.0200 265.0000 1.0000
65.0300 315.0000 1.0000
65.0400 282.0000 1.0000
65.0500 280.0000 1.0000
65.0600 292.0000 1.0000
65.0700 288.0000 1.0000
65.0800 291.0000 1.0000
65.0900 301.0000 1.0000
65.1000 291.0000 1.0000
65.1100 281.0000 1.0000
65.1200 292.0000 1.0000
65.1300 314.0000 1.0000
65.1400 316.0000 1.0000
65.1500 300.0000 1.0000
65.1600 309.0000 1.0000
65.1700 322.0000 1.0000
65.1800 339.0000 1.0000
65.1900 345.0000 1.0000
65.2000 361.0000 1.0000
65.2100 367.0000 1.0000
65.2200 373.0000 1.0000
65.2300 358.0000 1.0000
65.2400 390.0000 1.0000
65.2500 366.0000 1.0000
65.2600 367.0000 1.0000
65.2700 381.0000 1.0000
65.2800 413.0000 1.0000
65.2900 416.0000 1.0000
65.3000 446.0000 1.0000
65.3100 434.0000 1.0000
65.3200 439.0000 1.0000
65.3300 444.0000 1.0000
65.3400 457.0000 1.0000
65.3500 487.0000 1.0000
65.3600 484.0000 1.0000
65.3700 547.0000 1.0000
65.3800 589.0000 1.0000
65.3900 624.0000 1.0000
65.4000 589.0000 1.0000
65.4100 625.0000 1.0000
65.4200 711.0000 1.0000
65.4300 735.0000 1.0000
65.4400 750.0000 1.0000
65.4500 779.0000 1.0000
65.4600 832.0000 1.0000
65.4700 826.0000 1.0000
65.4800 877.0000 1.0000
65.4900 893.0000 1.0000
65.5000 949.0000 1.0000
65.5100 974.0000 1.0000
65.5200 955.0000 1.0000
65.5300 989.0000 1.0000
65.5400 1033.0000 1.0000
65.5500 1015.0000 1.0000
65.5600 1033.0000 1.0000
65.5700 1087.0000 1.0000
65.5800 985.0000 1.0000
65.5900 1039.0000 1.0000
65.6000 1042.0000 1.0000
65.6100 940.0000 1.0000
65.6200 923.0000 1.0000
65.6300 911.0000 1.0000
65.6400 877.0000 1.0000
65.6500 937.0000 1.0000
65.6600 862.0000 1.0000
65.6700 891.0000 1.0000
65.6800 888.0000 1.0000
65.6900 836.0000 1.0000
65.7000 817.0000 1.0000
65.7100 839.0000 1.0000
65.7200 815.0000 1.0000
65.7300 804.0000 1.0000
65.7400 736.0000 1.0000
65.7500 767.0000 1.0000
65.7600 764.0000 1.0000
65.7700 715.0000 1.0000
65.7800 720.0000 1.0000
65.7900 640.0000 1.0000
65.8000 619.0000 1.0000
65.8100 607.0000 1.0000
65.8200 573.0000 1.0000
65.8300 535.0000 1.0000
65.8400 507.0000 1.0000
65.8500 502.0000 1.0000
65.8600 465.0000 1.0000
65.8700 463.0000 1.0000
65.8800 465.0000 1.0000
65.8900 426.0000 1.0000
65.9000 440.0000 1.0000
65.9100 391.0000 1.0000
65.9200 429.0000 1.0000
65.9300 439.0000 1.0000
65.9400 386.0000 1.0000
65.9500 410.0000 1.0000
65.9600 358.0000 1.0000
65.9700 373.0000 1.0000
65.9800 350.0000 1.0000
65.9900 354.0000 1.0000
66.0000 368.0000 1.0000
66.0100 339.0000 1.0000
66.0200 319.0000 1.0000
66.0300 292.0000 1.0000
66.0400 339.0000 1.0000
66.0500 339.0000 1.0000
66.0600 322.0000 1.0000
66.0700 302.0000 1.0000
66.0800 314.0000 1.0000
66.0900 279.0000 1.0000
66.1000 302.0000 1.0000
66.1100 316.0000 1.0000
66.1200 294.0000 1.0000
66.1300 285.0000 1.0000
66.1400 312.0000 1.0000
66.1500 259.0000 1.0000
66.1600 266.0000 1.0000
66.1700 294.0000 1.0000
66.1800 313.0000 1.0000
66.1900 291.0000 1.0000
66.2000 262.0000 1.0000
66.2100 263.0000 1.0000
66.2200 252.0000 1.0000
66.2300 272.0000 1.0000
66.2400 251.0000 1.0000
66.2500 274.0000 1.0000
66.2600 267.0000 1.0000
66.2700 266.0000 1.0000
66.2800 279.0000 1.0000
66.2900 275.0000 1.0000
66.3000 268.0000 1.0000
66.3100 257.0000 1.0000
66.3200 287.0000 1.0000
66.3300 264.0000 1.0000
66.3400 247.0000 1.0000
66.3500 242.0000 1.0000
66.3600 272.0000 1.0000
66.3700 259.0000 1.0000
66.3800 269.0000 1.0000
66.3900 253.0000 1.0000
66.4000 229.0000 1.0000
66.4100 254.0000 1.0000
66.4200 246.0000 1.0000
66.4300 267.0000 1.0000
66.4400 262.0000 1.0000
66.4500 256.0000 1.0000
66.4600 245.0000 1.0000
66.4700 247.0000 1.0000
66.4800 252.0000 1.0000
66.4900 256.0000 1.0000
66.5000 263.0000 1.0000
66.5100 260.0000 1.0000
66.5200 239.0000 1.0000
66.5300 254.0000 1.0000
66.5400 271.0000 1.0000
66.5500 265.0000 1.0000
66.5600 256.0000 1.0000
66.5700 216.0000 1.0000
66.5800 216.0000 1.0000
66.5900 264.0000 1.0000
66.6000 260.0000 1.0000
66.6100 251.0000 1.0000
66.6200 236.0000 1.0000
66.6300 273.0000 1.0000
66.6400 262.0000 1.0000
66.6500 240.0000 1.0000
66.6600 231.0000 1.0000
66.6700 214.0000 1.0000
66.6800 212.0000 1.0000
66.6900 269.0000 1.0000
66.7000 227.0000 1.0000
66.7100 256.0000 1.0000
66.7200 253.0000 1.0000
66.7300 234.0000 1.0000
66.7400 227.0000 1.0000
66.7500 238.0000 1.0000
66.7600 235.0000 1.0000
66.7700 245.0000 1.0000
66.7800 251.0000 1.0000
66.7900 255.0000 1.0000
66.8000 261.0000 1.0000
66.8100 230.0000 1.0000
66.8200 264.0000 1.0000
66.8300 233.0000 1.0000
66.8400 277.0000 1.0000
66.8500 268.0000 1.0000
66.8600 242.0000 1.0000
66.8700 257.0000 1.0000
66.8800 231.0000 1.0000
66.8900 228.0000 1.0000
66.9000 259.0000 1.0000
66.9100 251.0000 1.0000
66.9200 245.0000 1.0000
66.9300 246.0000 1.0000
66.9400 250.0000 1.0000
66.9500 240.0000 1.0000
66.9600 231.0000 1.0000
66.9700 239.0000 1.0000
66.9800 260.0000 1.0000
66.9900 248.0000 1.0000
67.0000 235.0000 1.0000
67.0100 226.0000 1.0000
67.0200 256.0000 1.0000
67.0300 254.0000 1.0000
67.0400 221.0000 1.0000
67.0500 248.0000 1.0000
67.0600 252.0000 1.0000
67.0700 238.0000 1.0000
67.0800 225.0000 1.0000
67.0900 228.0000 1.0000
67.1000 272.0000 1.0000
67.1100 252.0000 1.0000
67.1200 235.0000 1.0000
67.1300 249.0000 1.0000
67.1400 238.0000 1.0000
67.1500 248.0000 1.0000
67.1600 266.0000 1.0000
67.1700 223.0000 1.0000
67.1800 242.0000 1.0000
67.1900 252.0000 1.0000
67.2000 229.0000 1.0000
67.2100 229.0000 1.0000
67.2200 234.0000 1.0000
67.2300 222.0000 1.0000
67.2400 226.0000 1.0000
67.2500 246.0000 1.0000
67.2600 227.0000 1.0000
67.2700 254.0000 1.0000
67.2800 234.0000 1.0000
67.2900 249.0000 1.0000
67.3000 271.0000 1.0000
67.3100 240.0000 1.0000
67.3200 257.0000 1.0000
67.3300 268.0000 1.0000
67.3400 248.0000 1.0000
67.3500 243.0000 1.0000
67.3600 212.0000 1.0000
67.3700 210.0000 1.0000
67.3800 240.0000 1.0000
67.3900 239.0000 1.0000
67.4000 240.0000 1.0000
67.4100 256.0000 1.0000
67.4200 235.0000 1.0000
67.4300 236.0000 1.0000
67.4400 239.0000 1.0000
67.4500 209.0000 1.0000
67.4600 230.0000 1.0000
67.4700 215.0000 1.0000
67.4800 247.0000 1.0000
67.4900 263.0000 1.0000
67.5000 256.0000 1.0000
67.5100 233.0000 1.0000
67.5200 223.0000 1.0000
67.5300 202.0000 1.0000
67.5400 226.0000 1.0000
67.5500 239.0000 1.0000
67.5600 214.0000 1.0000
67.5700 250.0000 1.0000
67.5800 244.0000 1.0000
67.5900 248.0000 1.0000
67.6000 230.0000 1.0000
67.6100 249.0000 1.0000
67.6200 240.0000 1.0000
67.6300 226.0000 1.0000
67.6400 219.0000 1.0000
67.6500 246.0000 1.0000
67.6600 229.0000 1.0000
67.6700 207.0000 1.0000
67.6800 253.0000 1.0000
67.6900 233.0000 1.0000
67.7000 224.0000 1.0000
67.7100 241.0000 1.0000
67.7200 220.0000 1.0000
67.7300 236.0000 1.0000
67.7400 224.0000 1.0000
67.7500 232.0000 1.0000
67.7600 224.0000 1.0000
67.7700 207.0000 1.0000
67.7800 220.0000 1.0000
67.7900 240.0000 1.0000
67.8000 244.0000 1.0000
67.8100 238.0000 1.0000
67.8200 232.0000 1.0000
67.8300 242.0000 1.0000
67.8400 216.0000 1.0000
67.8500 216.0000 1.0000
67.8600 207.0000 1.0000
67.8700 219.0000 1.0000
67.8800 242.0000 1.0000
67.8900 262.0000 1.0000
67.9000 251.0000 1.0000
67.9100 259.0000 1.0000
67.9200 225.0000 1.0000
67.9300 211.0000 1.0000
67.9400 233.0000 1.0000
67.9500 214.0000 1.0000
67.9600 213.0000 1.0000
67.9700 238.0000 1.0000
67.9800 239.0000 1.0000
67.9900 231.0000 1.0000
68.0000 221.0000 1.0000
68.0100 216.0000 1.0000
68.0200 239.0000 1.0000
68.0300 262.0000 1.0000
68.0400 228.0000 1.0000
68.0500 234.0000 1.0000
68.0600 272.0000 1.0000
68.0700 255.0000 1.0000
68.0800 216.0000 1.0000
68.0900 215.0000 1.0000
68.1000 235.0000 1.0000
68.1100 237.0000 1.0000
68.1200 231.0000 1.0000
68.1300 223.0000 1.0000
68.1400 244.0000 1.0000
68.1500 260.0000 1.0000
68.1600 232.0000 1.0000
68.1700 202.0000 1.0000
68.1800 239.0000 1.0000
68.1900 237.0000 1.0000
68.2000 241.0000 1.0000
68.2100 239.0000 1.0000
68.2200 247.0000 1.0000
68.2300 217.0000 1.0000
68.2400 218.0000 1.0000
68.2500 236.0000 1.0000
68.2600 257.0000 1.0000
68.2700 236.0000 1.0000
68.2800 261.0000 1.0000
68.2900 242.0000 1.0000
68.3000 217.0000 1.0000
68.3100 212.0000 1.0000
68.3200 222.0000 1.0000
68.3300 227.0000 1.0000
68.3400 243.0000 1.0000
68.3500 245.0000 1.0000
68.3600 247.0000 1.0000
68.3700 233.0000 1.0000
68.3800 226.0000 1.0000
68.3900 220.0000 1.0000
68.4000 243.0000 1.0000
68.4100 245.0000 1.0000
68.4200 230.0000 1.0000
68.4300 242.0000 1.0000
68.4400 242.0000 1.0000
68.4500 246.0000 1.0000
68.4600 248.0000 1.0000
68.4700 224.0000 1.0000
68.4800 225.0000 1.0000
68.4900 214.0000 1.0000
68.5000 205.0000 1.0000
68.5100 230.0000 1.0000
68.5200 225.0000 1.0000
68.5300 235.0000 1.0000
68.5400 236.0000 1.0000
68.5500 251.0000 1.0000
68.5600 237.0000 1.0000
68.5700 233.0000 1.0000
68.5800 247.0000 1.0000
68.5900 229.0000 1.0000
68.6000 242.0000 1.0000
68.6100 215.0000 1.0000
68.6200 233.0000 1.0000
68.6300 229.0000 1.0000
68.6400 229.0000 1.0000
68.6500 222.0000 1.0000
68.6600 229.0000 1.0000
68.6700 232.0000 1.0000
68.6800 224.0000 1.0000
68.6900 241.0000 1.0000
68.7000 232.0000 1.0000
68.7100 220.0000 1.0000
68.7200 228.0000 1.0000
68.7300 248.0000 1.0000
68.7400 228.0000 1.0000
68.7500 231.0000 1.0000
68.7600 252.0000 1.0000
68.7700 240.0000 1.0000
68.7800 247.0000 1.0000
68.7900 224.0000 1.0000
68.8000 248.0000 1.0000
68.8100 206.0000 1.0000
68.8200 235.0000 1.0000
68.8300 239.0000 1.0000
68.8400 230.0000 1.0000
68.8500 229.0000 1.0000
68.8600 214.0000 1.0000
68.8700 235.0000 1.0000
68.8800 244.0000 1.0000
68.8900 210.0000 1.0000
68.9000 215.0000 1.0000
68.9100 221.0000 1.0000
68.9200 212.0000 1.0000
68.9300 249.0000 1.0000
68.9400 232.0000 1.0000
68.9500 226.0000 1.0000
68.9600 235.0000 1.0000
68.9700 217.0000 1.0000
68.9800 220.0000 1.0000
68.9900 238.0000 1.0000
69.0000 239.0000 1.0000
69.0100 238.0000 1.0000
69.0200 239.0000 1.0000
69.0300 223.0000 1.0000
69.0400 243.0000 1.0000
69.0500 239.0000 1.0000
69.0600 231.0000 1.0000
69.0700 218.0000 1.0000
69.0800 244.0000 1.0000
69.0900 250.0000 1.0000
69.1000 215.0000 1.0000
69.1100 250.0000 1.0000
69.1200 242.0000 1.0000
69.1300 242.0000 1.0000
69.1400 221.0000 1.0000
69.1500 245.0000 1.0000
69.1600 225.0000 1.0000
69.1700 247.0000 1.0000
69.1800 261.0000 1.0000
69.1900 232.0000 1.0000
69.2000 219.0000 1.0000
69.2100 215.0000 1.0000
69.2200 225.0000 1.0000
69.2300 227.0000 1.0000
69.2400 232.0000 1.0000
69.2500 243.0000 1.0000
69.2600 226.0000 1.0000
69.2700 249.0000 1.0000
69.2800 233.0000 1.0000
69.2900 251.0000 1.0000
69.3000 233.0000 1.0000
69.3100 221.0000 1.0000
69.3200 234.0000 1.0000
69.3300 232.0000 1.0000
69.3400 231.0000 1.0000
69.3500 209.0000 1.0000
69.3600 235.0000 1.0000
69.3700 234.0000 1.0000
69.3800 195.0000 1.0000
69.3900 219.0000 1.0000
69.4000 208.0000 1.0000
69.4100 232.0000 1.0000
69.4200 221.0000 1.0000
69.4300 251.0000 1.0000
69.4400 239.0000 1.0000
69.4500 241.0000 1.0000
69.4600 260.0000 1.0000
69.4700 231.0000 1.0000
69.4800 227.0000 1.0000
69.4900 235.0000 1.0000
69.5000 221.0000 1.0000
69.5100 218.0000 1.0000
69.5200 211.0000 1.0000
69.5300 235.0000 1.0000
69.5400 248.0000 1.0000
69.5500 207.0000 1.0000
69.5600 213.0000 1.0000
69.5700 226.0000 1.0000
69.5800 244.0000 1.0000
69.5900 229.0000 1.0000
69.6000 227.0000 1.0000
69.6100 217.0000 1.0000
69.6200 229.0000 1.0000
69.6300 227.0000 1.0000
69.6400 239.0000 1.0000
69.6500 218.0000 1.0000
69.6600 237.0000 1.0000
69.6700 214.0000 1.0000
69.6800 239.0000 1.0000
69.6900 222.0000 1.0000
69.7000 219.0000 1.0000
69.7100 200.0000 1.0000
69.7200 233.0000 1.0000
69.7300 223.0000 1.0000
69.7400 209.0000 1.0000
69.7500 232.0000 1.0000
69.7600 201.0000 1.0000
69.7700 226.0000 1.0000
69.7800 227.0000 1.0000
69.7900 221.0000 1.0000
69.8000 223.0000 1.0000
69.8100 217.0000 1.0000
69.8200 234.0000 1.0000
69.8300 214.0000 1.0000
69.8400 208.0000 1.0000
69.8500 230.0000 1.0000
69.8600 211.0000 1.0000
69.8700 242.0000 1.0000
69.8800 239.0000 1.0000
69.8900 231.0000 1.0000
69.9000 216.0000 1.0000
69.9100 214.0000 1.0000
69.9200 220.0000 1.0000
69.9300 230.0000 1.0000
69.9400 227.0000 1.0000
69.9500 224.0000 1.0000
69.9600 209.0000 1.0000
69.9700 223.0000 1.0000
69.9800 225.0000 1.0000
69.9900 209.0000 1.0000
70.0000 240.0000 1.0000
*RAS_INT_END
*RAS_TEMPERATURE_START
*RAS_TEMPERATURE_END
*RAS_DATA_END
