*RAS_DATA_START
*RAS_HEADER_START
*DISP_FMT_X "%.2f"
*DISP_FMT_Y "%.0f"
*DISP_FULLSCALE "15715.0000000000"
*DISP_LINE_COLOR "255.0000000000"
*DISP_LINE_STYLE "0.0000000000"
*DISP_LINE_WIDTH "0.2500000000"
*DISP_NOTE "測定データ-10"
*DISP_OFFSET_Y "0.0000000000"
*DISP_PEAKSEARCH_UNIT_Y "cps"
*DISP_RANGE_BOTTOM "0.0000000000"
*DISP_RANGE_LEFT "20.0000000000"
*DISP_RANGE_LOGCUTOFF "0.0100000000"
*DISP_RANGE_RIGHT "70.0000000000"
*DISP_RANGE_TOP "15715.0000000000"
*DISP_SCALE_MODE_Y "0.0000000000"
*DISP_TAB_NAME "2θ/θ"
*DISP_TITLE_Y "強度"
*DISP_UNIT_Y "cps"
*DISP_WINDOW_NAME "MSG_MACROENGINE"
*FILE_COMMENT " "
*FILE_MD5 ""
*FILE_MEMO " "
*FILE_OPERATOR "Administrator"
*FILE_SAMPLE " "
*FILE_TYPE "RAS_RAW"
*FILE_USERGROUP "システムマネージャ"
*FILE_VERSION "1.0000000000"
*HW_ATTACHMENT_ID "ATT0025"
*HW_ATTACHMENT_NAME "標準|Standard"
*HW_COUNTER_ID-0 "CUT0025"
*HW_COUNTER_ID-1 "CUT0020"
*HW_COUNTER_ID-2 "CUT0020"
*HW_COUNTER_ID-3 "CSL0021"
*HW_COUNTER_ID-4 "CMC0021"
*HW_COUNTER_NAME-0 "D/teX Ultra|D/teX Ultra"
*HW_COUNTER_NAME-1 "None|None"
*HW_COUNTER_NAME-2 "None|None"
*HW_COUNTER_NAME-3 "BBM|BBM"
*HW_COUNTER_NAME-4 "検出器モノクロメータ|Detector monochromator"
*HW_COUNTER_SELECT_NAME "D/teX Ultra|D/teX Ultra"
*HW_GONIOMETER_ID "GON0023"
*HW_GONIOMETER_NAME "SmartLab|SmartLab"
*HW_GONIOMETER_RADIUS-0 "90.0"
*HW_GONIOMETER_RADIUS-1 "114.0"
*HW_GONIOMETER_RADIUS-2 "190.0"
*HW_GONIOMETER_RADIUS-3 "300.0"
*HW_GONIOMETER_RADIUS-4 "187.0"
*HW_GONIOMETER_RADIUS-5 "300.0"
*HW_GONIOMETER_RADIUS-6 "113.0"
*HW_GONIOMETER_RADIUS-7 "331.0"
*HW_I_OPT_ID-0 "CBO0021"
*HW_I_OPT_ID-1 "ICR0023"
*HW_I_OPT_ID-2 "ISL0021"
*HW_I_OPT_ID-3 "ISO0021"
*HW_I_OPT_ID-4 "IAD0021"
*HW_I_OPT_ID-5 "IPR0001"
*HW_I_OPT_NAME-0 "CBOユニット|CBO unit"
*HW_I_OPT_NAME-1 "標準入射光学ユニット|Standard incident optical unit"
*HW_I_OPT_NAME-2 "標準入射スリットボックス|Standard incident slit box"
*HW_I_OPT_NAME-3 "入射平行スリット|Incident parallel slit"
*HW_I_OPT_NAME-4 "長手制限スリット|Length limiting slit"
*HW_I_OPT_NAME-5 "None|None"
*HW_R_ATTENUATER_AUTOMODE "0"
*HW_R_OPT_ID-0 "RSS0021"
*HW_R_OPT_ID-1 "RCR0023"
*HW_R_OPT_ID-2 "RSO0021"
*HW_R_OPT_ID-3 "RRS0021"
*HW_R_OPT_ID-4 "ATN0021"
*HW_R_OPT_ID-5 "RFL0021"
*HW_R_OPT_ID-6 "RAD0021"
*HW_R_OPT_NAME-0 "標準受光スリットボックス1|Standard receiving slit box # 1"
*HW_R_OPT_NAME-1 "標準受光光学ユニット1|Standard receiving unit # 1"
*HW_R_OPT_NAME-2 "標準受光光学ユニット2|Standard receiving optical unit # 2"
*HW_R_OPT_NAME-3 "標準受光スリットボックス2|Standard receiving slit box # 2"
*HW_R_OPT_NAME-4 "標準アッテネータ|Standard Attenuator"
*HW_R_OPT_NAME-5 "Cu Kβ|Cu K-beta"
*HW_R_OPT_NAME-6 "調整用受光スリット|Alignment receiving slit"
*HW_SAMPLE_HOLDER_ID "SMP0023"
*HW_SAMPLE_HOLDER_NAME "標準Zステージ|Standard Z stage"
*HW_XG_CURRENT_MAX "50"
*HW_XG_CURRENT_MIN "2"
*HW_XG_CURRENT_RESOLUTION "1"
*HW_XG_CURRENT_UNIT "mA"
*HW_XG_FOCUS "1mm x 10mm"
*HW_XG_FOCUS_TYPE "Normal"
*HW_XG_ID ""
*HW_XG_NAME "3kW 封入管(ID:1200)|3kW Sealed tube(ID:1200)"
*HW_XG_TARGET_ATOMIC_NUMBER "29.0000000000"
*HW_XG_TARGET_NAME "Cu"
*HW_XG_TYPE "Hermetic"
*HW_XG_VOLTAGE_MAX "60"
*HW_XG_VOLTAGE_MIN "20"
*HW_XG_VOLTAGE_RESOLUTION "1"
*HW_XG_VOLTAGE_UNIT "kV"
*HW_XG_WATT_MAX "1.500"
*HW_XG_WATT_UNIT "kW"
*HW_XG_WAVE_LENGTH_ALPHA1 "1.540593"
*HW_XG_WAVE_LENGTH_ALPHA2 "1.544414"
*HW_XG_WAVE_LENGTH_BETA "1.392250"
*MEAS_COND_AXIS_NAME-0 "2θ/θ"
*MEAS_COND_AXIS_NAME-1 "2θ"
*MEAS_COND_AXIS_NAME-2 "ω"
*MEAS_COND_AXIS_NAME-3 "Z"
*MEAS_COND_AXIS_NAME-4 "2θ/ω"
*MEAS_COND_AXIS_NAME-5 "θs"
*MEAS_COND_AXIS_NAME-6 "θd"
*MEAS_COND_AXIS_NAME-7 "Ts"
*MEAS_COND_AXIS_NAME-8 "CBO選択スリット"
*MEAS_COND_AXIS_NAME-9 "M"
*MEAS_COND_AXIS_NAME-10 "入射平行スリット"
*MEAS_COND_AXIS_NAME-11 "入射スリット"
*MEAS_COND_AXIS_NAME-12 ""
*MEAS_COND_AXIS_NAME-13 "Zs"
*MEAS_COND_AXIS_NAME-14 "入射光学素子"
*MEAS_COND_AXIS_NAME-15 "長手制限スリット"
*MEAS_COND_AXIS_NAME-16 "センタースリット"
*MEAS_COND_AXIS_NAME-17 "フィルター"
*MEAS_COND_AXIS_NAME-18 "受光スリット1"
*MEAS_COND_AXIS_NAME-19 "受光スリット2"
*MEAS_COND_AXIS_NAME-20 "受光光学素子"
*MEAS_COND_AXIS_NAME-21 "受光平行スリット"
*MEAS_COND_AXIS_NAME-22 "調整用受光スリット"
*MEAS_COND_AXIS_NAME-23 ""
*MEAS_COND_AXIS_NAME-24 ""
*MEAS_COND_AXIS_NAME-25 "Zd"
*MEAS_COND_AXIS_NAME-26 "アッテネータ"
*MEAS_COND_AXIS_NAME-27 "検出器モノクロメータ"
*MEAS_COND_AXIS_NAME-28 "モノクロメータスリット"
*MEAS_COND_AXIS_NAME-29 "プライマリビーム"
*MEAS_COND_AXIS_NAME-30 "PHA"
*MEAS_COND_AXIS_NAME_INTERNAL-0 "TwoThetaTheta"
*MEAS_COND_AXIS_NAME_INTERNAL-1 "TwoTheta"
*MEAS_COND_AXIS_NAME_INTERNAL-2 "Omega"
*MEAS_COND_AXIS_NAME_INTERNAL-3 "Z"
*MEAS_COND_AXIS_NAME_INTERNAL-4 "TwoThetaOmega"
*MEAS_COND_AXIS_NAME_INTERNAL-5 "ThetaS"
*MEAS_COND_AXIS_NAME_INTERNAL-6 "ThetaD"
*MEAS_COND_AXIS_NAME_INTERNAL-7 "Ts"
*MEAS_COND_AXIS_NAME_INTERNAL-8 "CBO"
*MEAS_COND_AXIS_NAME_INTERNAL-9 "CBO-M"
*MEAS_COND_AXIS_NAME_INTERNAL-10 "IncidentSollerSlit"
*MEAS_COND_AXIS_NAME_INTERNAL-11 "IncidentSlitBox"
*MEAS_COND_AXIS_NAME_INTERNAL-12 "IncidentSlitBox-_Axis"
*MEAS_COND_AXIS_NAME_INTERNAL-13 "Zs"
*MEAS_COND_AXIS_NAME_INTERNAL-14 "IncidentMonochromator"
*MEAS_COND_AXIS_NAME_INTERNAL-15 "IncidentAxdSlit"
*MEAS_COND_AXIS_NAME_INTERNAL-16 "CenterSlit"
*MEAS_COND_AXIS_NAME_INTERNAL-17 "Filter"
*MEAS_COND_AXIS_NAME_INTERNAL-18 "ReceivingSlitBox1"
*MEAS_COND_AXIS_NAME_INTERNAL-19 "ReceivingSlitBox2"
*MEAS_COND_AXIS_NAME_INTERNAL-20 "ReceivingOptics"
*MEAS_COND_AXIS_NAME_INTERNAL-21 "ReceivingSollerSlit"
*MEAS_COND_AXIS_NAME_INTERNAL-22 "ReceivingAxdSlit"
*MEAS_COND_AXIS_NAME_INTERNAL-23 "ReceivingSlitBox1-_Axis"
*MEAS_COND_AXIS_NAME_INTERNAL-24 "ReceivingSlitBox2-_Axis"
*MEAS_COND_AXIS_NAME_INTERNAL-25 "ReceivingSlitBox2-Zd"
*MEAS_COND_AXIS_NAME_INTERNAL-26 "Attenuator"
*MEAS_COND_AXIS_NAME_INTERNAL-27 "CounterMonochromator"
*MEAS_COND_AXIS_NAME_INTERNAL-28 "CounterSlit"
*MEAS_COND_AXIS_NAME_INTERNAL-29 "IncidentPrimary"
*MEAS_COND_AXIS_NAME_INTERNAL-30 "PHA"
*MEAS_COND_AXIS_NAME_MAGICNO-0 "83951616.0000000000"
*MEAS_COND_AXIS_NAME_MAGICNO-1 "268632064.0000000000"
*MEAS_COND_AXIS_NAME_MAGICNO-2 "268500992.0000000000"
*MEAS_COND_AXIS_NAME_MAGICNO-3 "285278208.0000000000"
*MEAS_COND_AXIS_NAME_MAGICNO-4 "83951616.0000000000"
*MEAS_COND_AXIS_NAME_MAGICNO-5 "131072.0000000000"
*MEAS_COND_AXIS_NAME_MAGICNO-6 "131072.0000000000"
*MEAS_COND_AXIS_NAME_MAGICNO-7 "318898176.0000000000"
*MEAS_COND_AXIS_NAME_MAGICNO-8 "20971521.0000000000"
*MEAS_COND_AXIS_NAME_MAGICNO-9 "285343744.0000000000"
*MEAS_COND_AXIS_NAME_MAGICNO-10 "20971521.0000000000"
*MEAS_COND_AXIS_NAME_MAGICNO-11 "22020097.0000000000"
*MEAS_COND_AXIS_NAME_MAGICNO-12 "25165824.0000000000"
*MEAS_COND_AXIS_NAME_MAGICNO-13 "318898176.0000000000"
*MEAS_COND_AXIS_NAME_MAGICNO-14 "1.0000000000"
*MEAS_COND_AXIS_NAME_MAGICNO-15 "20971521.0000000000"
*MEAS_COND_AXIS_NAME_MAGICNO-16 "20971521.0000000000"
*MEAS_COND_AXIS_NAME_MAGICNO-17 "20971521.0000000000"
*MEAS_COND_AXIS_NAME_MAGICNO-18 "23068673.0000000000"
*MEAS_COND_AXIS_NAME_MAGICNO-19 "23068673.0000000000"
*MEAS_COND_AXIS_NAME_MAGICNO-20 "20971521.0000000000"
*MEAS_COND_AXIS_NAME_MAGICNO-21 "20971521.0000000000"
*MEAS_COND_AXIS_NAME_MAGICNO-22 "20971521.0000000000"
*MEAS_COND_AXIS_NAME_MAGICNO-23 "25165824.0000000000"
*MEAS_COND_AXIS_NAME_MAGICNO-24 "25165824.0000000000"
*MEAS_COND_AXIS_NAME_MAGICNO-25 "285343744.0000000000"
*MEAS_COND_AXIS_NAME_MAGICNO-26 "17301505.0000000000"
*MEAS_COND_AXIS_NAME_MAGICNO-27 "20971521.0000000000"
*MEAS_COND_AXIS_NAME_MAGICNO-28 "20971521.0000000000"
*MEAS_COND_AXIS_NAME_MAGICNO-29 "20971521.0000000000"
*MEAS_COND_AXIS_NAME_MAGICNO-30 "0.0000000000"
*MEAS_COND_AXIS_OFFSET-0 "-"
*MEAS_COND_AXIS_OFFSET-1 "-0.0310000000"
*MEAS_COND_AXIS_OFFSET-2 "0.3957000000"
*MEAS_COND_AXIS_OFFSET-3 "-"
*MEAS_COND_AXIS_OFFSET-4 "-"
*MEAS_COND_AXIS_OFFSET-5 "0.3957000000"
*MEAS_COND_AXIS_OFFSET-6 "-0.4267000000"
*MEAS_COND_AXIS_OFFSET-7 "-"
*MEAS_COND_AXIS_OFFSET-8 "-"
*MEAS_COND_AXIS_OFFSET-9 "-"
*MEAS_COND_AXIS_OFFSET-10 "-"
*MEAS_COND_AXIS_OFFSET-11 "-"
*MEAS_COND_AXIS_OFFSET-12 "-"
*MEAS_COND_AXIS_OFFSET-13 "-"
*MEAS_COND_AXIS_OFFSET-14 "-"
*MEAS_COND_AXIS_OFFSET-15 "-"
*MEAS_COND_AXIS_OFFSET-16 "-"
*MEAS_COND_AXIS_OFFSET-17 "-"
*MEAS_COND_AXIS_OFFSET-18 "-"
*MEAS_COND_AXIS_OFFSET-19 "-"
*MEAS_COND_AXIS_OFFSET-20 "-"
*MEAS_COND_AXIS_OFFSET-21 "-"
*MEAS_COND_AXIS_OFFSET-22 "-"
*MEAS_COND_AXIS_OFFSET-23 "-"
*MEAS_COND_AXIS_OFFSET-24 "-"
*MEAS_COND_AXIS_OFFSET-25 "-"
*MEAS_COND_AXIS_OFFSET-26 "-"
*MEAS_COND_AXIS_OFFSET-27 "-"
*MEAS_COND_AXIS_OFFSET-28 "-"
*MEAS_COND_AXIS_OFFSET-29 "-"
*MEAS_COND_AXIS_OFFSET-30 "-"
*MEAS_COND_AXIS_POSITION-0 "0.0000000000"
*MEAS_COND_AXIS_POSITION-1 "0.0000000000"
*MEAS_COND_AXIS_POSITION-2 "0.0000000000"
*MEAS_COND_AXIS_POSITION-3 "-2.9037400000"
*MEAS_COND_AXIS_POSITION-4 "0.0000000000"
*MEAS_COND_AXIS_POSITION-5 "0.0000000000"
*MEAS_COND_AXIS_POSITION-6 "0.0000000000"
*MEAS_COND_AXIS_POSITION-7 "-0.7498700000"
*MEAS_COND_AXIS_POSITION-8 "BB"
*MEAS_COND_AXIS_POSITION-9 "0.0000000000"
*MEAS_COND_AXIS_POSITION-10 "Soller_slit_5.0deg"
*MEAS_COND_AXIS_POSITION-11 "2/3deg"
*MEAS_COND_AXIS_POSITION-12 "2.2088000000"
*MEAS_COND_AXIS_POSITION-13 "-0.6412500000"
*MEAS_COND_AXIS_POSITION-14 "0.0000000000"
*MEAS_COND_AXIS_POSITION-15 "10.0mm"
*MEAS_COND_AXIS_POSITION-16 "None"
*MEAS_COND_AXIS_POSITION-17 "Cu_K-beta"
*MEAS_COND_AXIS_POSITION-18 "13.000mm"
*MEAS_COND_AXIS_POSITION-19 "13.000mm"
*MEAS_COND_AXIS_POSITION-20 "No_unit"
*MEAS_COND_AXIS_POSITION-21 "Soller_slit_5.0deg"
*MEAS_COND_AXIS_POSITION-22 "None"
*MEAS_COND_AXIS_POSITION-23 "13.0000000000"
*MEAS_COND_AXIS_POSITION-24 "13.0000000000"
*MEAS_COND_AXIS_POSITION-25 "0.0281300000"
*MEAS_COND_AXIS_POSITION-26 "Open"
*MEAS_COND_AXIS_POSITION-27 "None"
*MEAS_COND_AXIS_POSITION-28 "None"
*MEAS_COND_AXIS_POSITION-29 "None"
*MEAS_COND_AXIS_POSITION-30 "38.0000000000"
*MEAS_COND_AXIS_UNIT-0 "deg"
*MEAS_COND_AXIS_UNIT-1 "deg"
*MEAS_COND_AXIS_UNIT-2 "deg"
*MEAS_COND_AXIS_UNIT-3 "mm"
*MEAS_COND_AXIS_UNIT-4 "deg"
*MEAS_COND_AXIS_UNIT-5 "deg"
*MEAS_COND_AXIS_UNIT-6 "deg"
*MEAS_COND_AXIS_UNIT-7 "mm"
*MEAS_COND_AXIS_UNIT-8 ""
*MEAS_COND_AXIS_UNIT-9 "pulse"
*MEAS_COND_AXIS_UNIT-10 ""
*MEAS_COND_AXIS_UNIT-11 ""
*MEAS_COND_AXIS_UNIT-12 "mm"
*MEAS_COND_AXIS_UNIT-13 "mm"
*MEAS_COND_AXIS_UNIT-14 ""
*MEAS_COND_AXIS_UNIT-15 ""
*MEAS_COND_AXIS_UNIT-16 ""
*MEAS_COND_AXIS_UNIT-17 ""
*MEAS_COND_AXIS_UNIT-18 ""
*MEAS_COND_AXIS_UNIT-19 ""
*MEAS_COND_AXIS_UNIT-20 ""
*MEAS_COND_AXIS_UNIT-21 ""
*MEAS_COND_AXIS_UNIT-22 ""
*MEAS_COND_AXIS_UNIT-23 "mm"
*MEAS_COND_AXIS_UNIT-24 "mm"
*MEAS_COND_AXIS_UNIT-25 "mm"
*MEAS_COND_AXIS_UNIT-26 ""
*MEAS_COND_AXIS_UNIT-27 ""
*MEAS_COND_AXIS_UNIT-28 ""
*MEAS_COND_AXIS_UNIT-29 ""
*MEAS_COND_AXIS_UNIT-30 "div"
*MEAS_COND_COUNTER_CNTLOSS_CORR "0.0000000000"
*MEAS_COND_COUNTER_PHABASE "38.0000000000"
*MEAS_COND_COUNTER_PHAWINDOW "16.0000000000"
*MEAS_COND_COUNTER_PHA_UNIT "div"
*MEAS_COND_COUNTER_TAUDIFF "30.0000000000"
*MEAS_COND_COUNTER_TAUINT "0.0000000000"
*MEAS_COND_IRRADIATION_MODE "OFF"
*MEAS_COND_IRRADIATION_WIDTH ""
*MEAS_COND_OPT_ATTR "集中法"
*MEAS_COND_OPT_NAME "@集中法"
*MEAS_COND_UNSYMMETRIC_MODE "OFF"
*MEAS_COND_XG_CURRENT "30.0000000000"
*MEAS_COND_XG_VOLTAGE "40.0000000000"
*MEAS_COND_XG_WAVE_TYPE "Ka"
*MEAS_DATA_COUNT "5001.0000000000"
*MEAS_SCAN_AXIS_X "2θ/θ"
*MEAS_SCAN_AXIS_X_INTERNAL "TwoThetaTheta"
*MEAS_SCAN_END_TIME "02/15/24 20:22:42"
*MEAS_SCAN_MODE "CONTINUOUS"
*MEAS_SCAN_MONITOR "0"
*MEAS_SCAN_RESOLUTION_X "0.0002"
*MEAS_SCAN_SPEED "2.5"
*MEAS_SCAN_SPEED_UNIT "deg/min"
*MEAS_SCAN_START "20.0000000000"
*MEAS_SCAN_START_TIME "02/15/24 20:01:18"
*MEAS_SCAN_STEP "0.0100000000"
*MEAS_SCAN_STOP "70.0000000000"
*MEAS_SCAN_UNIT_X "deg"
*MEAS_SCAN_UNIT_Y "counts"
*RAS_HEADER_END
*RAS_INT_START
20.0000 869.0000 1.0000
20.0100 872.0000 1.0000
20.0200 891.0000 1.0000
20.0300 903.0000 1.0000
20.0400 891.0000 1.0000
20.0500 880.0000 1.0000
20.0600 868.0000 1.0000
20.0700 917.0000 1.0000
20.0800 882.0000 1.0000
20.0900 858.0000 1.0000
20.1000 884.0000 1.0000
20.1100 907.0000 1.0000
20.1200 921.0000 1.0000
20.1300 904.0000 1.0000
20.1400 886.0000 1.0000
20.1500 899.0000 1.0000
20.1600 884.0000 1.0000
20.1700 937.0000 1.0000
20.1800 920.0000 1.0000
20.1900 888.0000 1.0000
20.2000 918.0000 1.0000
20.2100 888.0000 1.0000
20.2200 891.0000 1.0000
20.2300 907.0000 1.0000
20.2400 888.0000 1.0000
20.2500 884.0000 1.0000
20.2600 879.0000 1.0000
20.2700 870.0000 1.0000
20.2800 887.0000 1.0000
20.2900 882.0000 1.0000
20.3000 889.0000 1.0000
20.3100 878.0000 1.0000
20.3200 855.0000 1.0000
20.3300 860.0000 1.0000
20.3400 889.0000 1.0000
20.3500 873.0000 1.0000
20.3600 865.0000 1.0000
20.3700 863.0000 1.0000
20.3800 898.0000 1.0000
20.3900 880.0000 1.0000
20.4000 899.0000 1.0000
20.4100 858.0000 1.0000
20.4200 914.0000 1.0000
20.4300 911.0000 1.0000
20.4400 895.0000 1.0000
20.4500 865.0000 1.0000
20.4600 857.0000 1.0000
20.4700 864.0000 1.0000
20.4800 875.0000 1.0000
20.4900 858.0000 1.0000
20.5000 909.0000 1.0000
20.5100 906.0000 1.0000
20.5200 894.0000 1.0000
20.5300 882.0000 1.0000
20.5400 913.0000 1.0000
20.5500 890.0000 1.0000
20.5600 878.0000 1.0000
20.5700 914.0000 1.0000
20.5800 865.0000 1.0000
20.5900 885.0000 1.0000
20.6000 900.0000 1.0000
20.6100 878.0000 1.0000
20.6200 862.0000 1.0000
20.6300 897.0000 1.0000
20.6400 896.0000 1.0000
20.6500 931.0000 1.0000
20.6600 928.0000 1.0000
20.6700 953.0000 1.0000
20.6800 901.0000 1.0000
20.6900 858.0000 1.0000
20.7000 870.0000 1.0000
20.7100 870.0000 1.0000
20.7200 839.0000 1.0000
20.7300 836.0000 1.0000
20.7400 885.0000 1.0000
20.7500 860.0000 1.0000
20.7600 845.0000 1.0000
20.7700 854.0000 1.0000
20.7800 890.0000 1.0000
20.7900 823.0000 1.0000
20.8000 857.0000 1.0000
20.8100 871.0000 1.0000
20.8200 856.0000 1.0000
20.8300 876.0000 1.0000
20.8400 883.0000 1.0000
20.8500 864.0000 1.0000
20.8600 872.0000 1.0000
20.8700 876.0000 1.0000
20.8800 873.0000 1.0000
20.8900 863.0000 1.0000
20.9000 843.0000 1.0000
20.9100 847.0000 1.0000
20.9200 873.0000 1.0000
20.9300 897.0000 1.0000
20.9400 899.0000 1.0000
20.9500 881.0000 1.0000
20.9600 905.0000 1.0000
20.9700 874.0000 1.0000
20.9800 829.0000 1.0000
20.9900 894.0000 1.0000
21.0000 923.0000 1.0000
21.0100 908.0000 1.0000
21.0200 877.0000 1.0000
21.0300 883.0000 1.0000
21.0400 841.0000 1.0000
21.0500 900.0000 1.0000
21.0600 852.0000 1.0000
21.0700 837.0000 1.0000
21.0800 901.0000 1.0000
21.0900 876.0000 1.0000
21.1000 885.0000 1.0000
21.1100 851.0000 1.0000
21.1200 901.0000 1.0000
21.1300 883.0000 1.0000
21.1400 880.0000 1.0000
21.1500 874.0000 1.0000
21.1600 839.0000 1.0000
21.1700 896.0000 1.0000
21.1800 910.0000 1.0000
21.1900 934.0000 1.0000
21.2000 864.0000 1.0000
21.2100 860.0000 1.0000
21.2200 890.0000 1.0000
21.2300 822.0000 1.0000
21.2400 841.0000 1.0000
21.2500 877.0000 1.0000
21.2600 859.0000 1.0000
21.2700 891.0000 1.0000
21.2800 871.0000 1.0000
21.2900 884.0000 1.0000
21.3000 900.0000 1.0000
21.3100 888.0000 1.0000
21.3200 843.0000 1.0000
21.3300 870.0000 1.0000
21.3400 858.0000 1.0000
21.3500 871.0000 1.0000
21.3600 878.0000 1.0000
21.3700 933.0000 1.0000
21.3800 875.0000 1.0000
21.3900 844.0000 1.0000
21.4000 864.0000 1.0000
21.4100 871.0000 1.0000
21.4200 865.0000 1.0000
21.4300 861.0000 1.0000
21.4400 840.0000 1.0000
21.4500 858.0000 1.0000
21.4600 841.0000 1.0000
21.4700 879.0000 1.0000
21.4800 894.0000 1.0000
21.4900 854.0000 1.0000
21.5000 861.0000 1.0000
21.5100 905.0000 1.0000
21.5200 896.0000 1.0000
21.5300 842.0000 1.0000
21.5400 791.0000 1.0000
21.5500 820.0000 1.0000
21.5600 832.0000 1.0000
21.5700 889.0000 1.0000
21.5800 829.0000 1.0000
21.5900 846.0000 1.0000
21.6000 826.0000 1.0000
21.6100 895.0000 1.0000
21.6200 887.0000 1.0000
21.6300 873.0000 1.0000
21.6400 827.0000 1.0000
21.6500 858.0000 1.0000
21.6600 811.0000 1.0000
21.6700 830.0000 1.0000
21.6800 852.0000 1.0000
21.6900 871.0000 1.0000
21.7000 879.0000 1.0000
21.7100 826.0000 1.0000
21.7200 798.0000 1.0000
21.7300 869.0000 1.0000
21.7400 873.0000 1.0000
21.7500 906.0000 1.0000
21.7600 879.0000 1.0000
21.7700 861.0000 1.0000
21.7800 930.0000 1.0000
21.7900 913.0000 1.0000
21.8000 873.0000 1.0000
21.8100 827.0000 1.0000
21.8200 813.0000 1.0000
21.8300 850.0000 1.0000
21.8400 847.0000 1.0000
21.8500 826.0000 1.0000
21.8600 914.0000 1.0000
21.8700 828.0000 1.0000
21.8800 846.0000 1.0000
21.8900 820.0000 1.0000
21.9000 874.0000 1.0000
21.9100 849.0000 1.0000
21.9200 880.0000 1.0000
21.9300 818.0000 1.0000
21.9400 828.0000 1.0000
21.9500 880.0000 1.0000
21.9600 877.0000 1.0000
21.9700 850.0000 1.0000
21.9800 859.0000 1.0000
21.9900 901.0000 1.0000
22.0000 865.0000 1.0000
22.0100 858.0000 1.0000
22.0200 895.0000 1.0000
22.0300 863.0000 1.0000
22.0400 855.0000 1.0000
22.0500 862.0000 1.0000
22.0600 846.0000 1.0000
22.0700 803.0000 1.0000
22.0800 877.0000 1.0000
22.0900 882.0000 1.0000
22.1000 851.0000 1.0000
22.1100 847.0000 1.0000
22.1200 861.0000 1.0000
22.1300 867.0000 1.0000
22.1400 858.0000 1.0000
22.1500 851.0000 1.0000
22.1600 847.0000 1.0000
22.1700 815.0000 1.0000
22.1800 860.0000 1.0000
22.1900 815.0000 1.0000
22.2000 891.0000 1.0000
22.2100 900.0000 1.0000
22.2200 802.0000 1.0000
22.2300 798.0000 1.0000
22.2400 840.0000 1.0000
22.2500 806.0000 1.0000
22.2600 855.0000 1.0000
22.2700 814.0000 1.0000
22.2800 847.0000 1.0000
22.2900 841.0000 1.0000
22.3000 843.0000 1.0000
22.3100 808.0000 1.0000
22.3200 885.0000 1.0000
22.3300 885.0000 1.0000
22.3400 814.0000 1.0000
22.3500 805.0000 1.0000
22.3600 843.0000 1.0000
22.3700 872.0000 1.0000
22.3800 819.0000 1.0000
22.3900 833.0000 1.0000
22.4000 858.0000 1.0000
22.4100 846.0000 1.0000
22.4200 792.0000 1.0000
22.4300 837.0000 1.0000
22.4400 847.0000 1.0000
22.4500 849.0000 1.0000
22.4600 830.0000 1.0000
22.4700 826.0000 1.0000
22.4800 858.0000 1.0000
22.4900 805.0000 1.0000
22.5000 843.0000 1.0000
22.5100 815.0000 1.0000
22.5200 854.0000 1.0000
22.5300 905.0000 1.0000
22.5400 858.0000 1.0000
22.5500 933.0000 1.0000
22.5600 829.0000 1.0000
22.5700 869.0000 1.0000
22.5800 832.0000 1.0000
22.5900 860.0000 1.0000
22.6000 834.0000 1.0000
22.6100 823.0000 1.0000
22.6200 826.0000 1.0000
22.6300 806.0000 1.0000
22.6400 844.0000 1.0000
22.6500 845.0000 1.0000
22.6600 855.0000 1.0000
22.6700 859.0000 1.0000
22.6800 828.0000 1.0000
22.6900 834.0000 1.0000
22.7000 817.0000 1.0000
22.7100 839.0000 1.0000
22.7200 824.0000 1.0000
22.7300 863.0000 1.0000
22.7400 846.0000 1.0000
22.7500 782.0000 1.0000
22.7600 852.0000 1.0000
22.7700 853.0000 1.0000
22.7800 877.0000 1.0000
22.7900 867.0000 1.0000
22.8000 826.0000 1.0000
22.8100 874.0000 1.0000
22.8200 819.0000 1.0000
22.8300 862.0000 1.0000
22.8400 824.0000 1.0000
22.8500 877.0000 1.0000
22.8600 851.0000 1.0000
22.8700 856.0000 1.0000
22.8800 811.0000 1.0000
22.8900 805.0000 1.0000
22.9000 837.0000 1.0000
22.9100 819.0000 1.0000
22.9200 874.0000 1.0000
22.9300 837.0000 1.0000
22.9400 794.0000 1.0000
22.9500 824.0000 1.0000
22.9600 845.0000 1.0000
22.9700 830.0000 1.0000
22.9800 874.0000 1.0000
22.9900 857.0000 1.0000
23.0000 886.0000 1.0000
23.0100 786.0000 1.0000
23.0200 826.0000 1.0000
23.0300 856.0000 1.0000
23.0400 833.0000 1.0000
23.0500 807.0000 1.0000
23.0600 785.0000 1.0000
23.0700 861.0000 1.0000
23.0800 831.0000 1.0000
23.0900 824.0000 1.0000
23.1000 839.0000 1.0000
23.1100 832.0000 1.0000
23.1200 816.0000 1.0000
23.1300 819.0000 1.0000
23.1400 816.0000 1.0000
23.1500 824.0000 1.0000
23.1600 822.0000 1.0000
23.1700 887.0000 1.0000
23.1800 841.0000 1.0000
23.1900 873.0000 1.0000
23.2000 824.0000 1.0000
23.2100 833.0000 1.0000
23.2200 852.0000 1.0000
23.2300 804.0000 1.0000
23.2400 807.0000 1.0000
23.2500 829.0000 1.0000
23.2600 803.0000 1.0000
23.2700 843.0000 1.0000
23.2800 848.0000 1.0000
23.2900 831.0000 1.0000
23.3000 831.0000 1.0000
23.3100 847.0000 1.0000
23.3200 848.0000 1.0000
23.3300 846.0000 1.0000
23.3400 772.0000 1.0000
23.3500 814.0000 1.0000
23.3600 831.0000 1.0000
23.3700 858.0000 1.0000
23.3800 840.0000 1.0000
23.3900 830.0000 1.0000
23.4000 836.0000 1.0000
23.4100 804.0000 1.0000
23.4200 820.0000 1.0000
23.4300 830.0000 1.0000
23.4400 824.0000 1.0000
23.4500 871.0000 1.0000
23.4600 838.0000 1.0000
23.4700 834.0000 1.0000
23.4800 833.0000 1.0000
23.4900 825.0000 1.0000
23.5000 847.0000 1.0000
23.5100 818.0000 1.0000
23.5200 843.0000 1.0000
23.5300 806.0000 1.0000
23.5400 835.0000 1.0000
23.5500 816.0000 1.0000
23.5600 859.0000 1.0000
23.5700 817.0000 1.0000
23.5800 841.0000 1.0000
23.5900 836.0000 1.0000
23.6000 859.0000 1.0000
23.6100 836.0000 1.0000
23.6200 847.0000 1.0000
23.6300 833.0000 1.0000
23.6400 817.0000 1.0000
23.6500 779.0000 1.0000
23.6600 812.0000 1.0000
23.6700 813.0000 1.0000
23.6800 807.0000 1.0000
23.6900 807.0000 1.0000
23.7000 848.0000 1.0000
23.7100 809.0000 1.0000
23.7200 847.0000 1.0000
23.7300 843.0000 1.0000
23.7400 827.0000 1.0000
23.7500 801.0000 1.0000
23.7600 817.0000 1.0000
23.7700 861.0000 1.0000
23.7800 867.0000 1.0000
23.7900 828.0000 1.0000
23.8000 871.0000 1.0000
23.8100 817.0000 1.0000
23.8200 811.0000 1.0000
23.8300 825.0000 1.0000
23.8400 834.0000 1.0000
23.8500 893.0000 1.0000
23.8600 874.0000 1.0000
23.8700 866.0000 1.0000
23.8800 857.0000 1.0000
23.8900 826.0000 1.0000
23.9000 823.0000 1.0000
23.9100 865.0000 1.0000
23.9200 841.0000 1.0000
23.9300 870.0000 1.0000
23.9400 821.0000 1.0000
23.9500 845.0000 1.0000
23.9600 893.0000 1.0000
23.9700 876.0000 1.0000
23.9800 839.0000 1.0000
23.9900 881.0000 1.0000
24.0000 921.0000 1.0000
24.0100 898.0000 1.0000
24.0200 919.0000 1.0000
24.0300 919.0000 1.0000
24.0400 917.0000 1.0000
24.0500 927.0000 1.0000
24.0600 974.0000 1.0000
24.0700 932.0000 1.0000
24.0800 901.0000 1.0000
24.0900 957.0000 1.0000
24.1000 971.0000 1.0000
24.1100 983.0000 1.0000
24.1200 976.0000 1.0000
24.1300 974.0000 1.0000
24.1400 923.0000 1.0000
24.1500 909.0000 1.0000
24.1600 963.0000 1.0000
24.1700 951.0000 1.0000
24.1800 945.0000 1.0000
24.1900 897.0000 1.0000
24.2000 918.0000 1.0000
24.2100 884.0000 1.0000
24.2200 842.0000 1.0000
24.2300 879.0000 1.0000
24.2400 888.0000 1.0000
24.2500 834.0000 1.0000
24.2600 859.0000 1.0000
24.2700 855.0000 1.0000
24.2800 816.0000 1.0000
24.2900 781.0000 1.0000
24.3000 850.0000 1.0000
24.3100 835.0000 1.0000
24.3200 867.0000 1.0000
24.3300 815.0000 1.0000
24.3400 880.0000 1.0000
24.3500 827.0000 1.0000
24.3600 857.0000 1.0000
24.3700 812.0000 1.0000
24.3800 855.0000 1.0000
24.3900 799.0000 1.0000
24.4000 758.0000 1.0000
24.4100 838.0000 1.0000
24.4200 801.0000 1.0000
24.4300 801.0000 1.0000
24.4400 825.0000 1.0000
24.4500 785.0000 1.0000
24.4600 835.0000 1.0000
24.4700 851.0000 1.0000
24.4800 787.0000 1.0000
24.4900 808.0000 1.0000
24.5000 791.0000 1.0000
24.5100 824.0000 1.0000
24.5200 841.0000 1.0000
24.5300 826.0000 1.0000
24.5400 859.0000 1.0000
24.5500 776.0000 1.0000
24.5600 831.0000 1.0000
24.5700 824.0000 1.0000
24.5800 790.0000 1.0000
24.5900 823.0000 1.0000
24.6000 763.0000 1.0000
24.6100 822.0000 1.0000
24.6200 786.0000 1.0000
24.6300 763.0000 1.0000
24.6400 755.0000 1.0000
24.6500 795.0000 1.0000
24.6600 804.0000 1.0000
24.6700 837.0000 1.0000
24.6800 772.0000 1.0000
24.6900 824.0000 1.0000
24.7000 827.0000 1.0000
24.7100 801.0000 1.0000
24.7200 854.0000 1.0000
24.7300 836.0000 1.0000
24.7400 809.0000 1.0000
24.7500 824.0000 1.0000
24.7600 735.0000 1.0000
24.7700 826.0000 1.0000
24.7800 838.0000 1.0000
24.7900 784.0000 1.0000
24.8000 814.0000 1.0000
24.8100 805.0000 1.0000
24.8200 814.0000 1.0000
24.8300 821.0000 1.0000
24.8400 756.0000 1.0000
24.8500 765.0000 1.0000
24.8600 811.0000 1.0000
24.8700 804.0000 1.0000
24.8800 798.0000 1.0000
24.8900 819.0000 1.0000
24.9000 759.0000 1.0000
24.9100 806.0000 1.0000
24.9200 819.0000 1.0000
24.9300 793.0000 1.0000
24.9400 765.0000 1.0000
24.9500 845.0000 1.0000
24.9600 784.0000 1.0000
24.9700 827.0000 1.0000
24.9800 816.0000 1.0000
24.9900 808.0000 1.0000
25.0000 806.0000 1.0000
25.0100 792.0000 1.0000
25.0200 772.0000 1.0000
25.0300 736.0000 1.0000
25.0400 795.0000 1.0000
25.0500 804.0000 1.0000
25.0600 826.0000 1.0000
25.0700 782.0000 1.0000
25.0800 765.0000 1.0000
25.0900 797.0000 1.0000
25.1000 778.0000 1.0000
25.1100 774.0000 1.0000
25.1200 763.0000 1.0000
25.1300 781.0000 1.0000
25.1400 803.0000 1.0000
25.1500 821.0000 1.0000
25.1600 833.0000 1.0000
25.1700 797.0000 1.0000
25.1800 807.0000 1.0000
25.1900 791.0000 1.0000
25.2000 769.0000 1.0000
25.2100 821.0000 1.0000
25.2200 823.0000 1.0000
25.2300 796.0000 1.0000
25.2400 815.0000 1.0000
25.2500 809.0000 1.0000
25.2600 796.0000 1.0000
25.2700 826.0000 1.0000
25.2800 777.0000 1.0000
25.2900 805.0000 1.0000
25.3000 798.0000 1.0000
25.3100 823.0000 1.0000
25.3200 752.0000 1.0000
25.3300 799.0000 1.0000
25.3400 763.0000 1.0000
25.3500 785.0000 1.0000
25.3600 789.0000 1.0000
25.3700 824.0000 1.0000
25.3800 762.0000 1.0000
25.3900 811.0000 1.0000
25.4000 779.0000 1.0000
25.4100 802.0000 1.0000
25.4200 795.0000 1.0000
25.4300 823.0000 1.0000
25.4400 816.0000 1.0000
25.4500 824.0000 1.0000
25.4600 807.0000 1.0000
25.4700 805.0000 1.0000
25.4800 774.0000 1.0000
25.4900 800.0000 1.0000
25.5000 787.0000 1.0000
25.5100 827.0000 1.0000
25.5200 788.0000 1.0000
25.5300 762.0000 1.0000
25.5400 780.0000 1.0000
25.5500 808.0000 1.0000
25.5600 835.0000 1.0000
25.5700 799.0000 1.0000
25.5800 788.0000 1.0000
25.5900 766.0000 1.0000
25.6000 787.0000 1.0000
25.6100 778.0000 1.0000
25.6200 814.0000 1.0000
25.6300 810.0000 1.0000
25.6400 804.0000 1.0000
25.6500 829.0000 1.0000
25.6600 785.0000 1.0000
25.6700 854.0000 1.0000
25.6800 763.0000 1.0000
25.6900 774.0000 1.0000
25.7000 784.0000 1.0000
25.7100 785.0000 1.0000
25.7200 795.0000 1.0000
25.7300 793.0000 1.0000
25.7400 768.0000 1.0000
25.7500 809.0000 1.0000
25.7600 821.0000 1.0000
25.7700 819.0000 1.0000
25.7800 809.0000 1.0000
25.7900 746.0000 1.0000
25.8000 806.0000 1.0000
25.8100 832.0000 1.0000
25.8200 818.0000 1.0000
25.8300 785.0000 1.0000
25.8400 798.0000 1.0000
25.8500 777.0000 1.0000
25.8600 803.0000 1.0000
25.8700 808.0000 1.0000
25.8800 838.0000 1.0000
25.8900 789.0000 1.0000
25.9000 801.0000 1.0000
25.9100 822.0000 1.0000
25.9200 844.0000 1.0000
25.9300 833.0000 1.0000
25.9400 790.0000 1.0000
25.9500 823.0000 1.0000
25.9600 834.0000 1.0000
25.9700 820.0000 1.0000
25.9800 860.0000 1.0000
25.9900 833.0000 1.0000
26.0000 874.0000 1.0000
26.0100 779.0000 1.0000
26.0200 871.0000 1.0000
26.0300 833.0000 1.0000
26.0400 813.0000 1.0000
26.0500 831.0000 1.0000
26.0600 827.0000 1.0000
26.0700 879.0000 1.0000
26.0800 822.0000 1.0000
26.0900 882.0000 1.0000
26.1000 920.0000 1.0000
26.1100 869.0000 1.0000
26.1200 864.0000 1.0000
26.1300 890.0000 1.0000
26.1400 854.0000 1.0000
26.1500 916.0000 1.0000
26.1600 912.0000 1.0000
26.1700 923.0000 1.0000
26.1800 931.0000 1.0000
26.1900 948.0000 1.0000
26.2000 935.0000 1.0000
26.2100 945.0000 1.0000
26.2200 1005.0000 1.0000
26.2300 1014.0000 1.0000
26.2400 988.0000 1.0000
26.2500 999.0000 1.0000
26.2600 1028.0000 1.0000
26.2700 1075.0000 1.0000
26.2800 1064.0000 1.0000
26.2900 1066.0000 1.0000
26.3000 1115.0000 1.0000
26.3100 1157.0000 1.0000
26.3200 1195.0000 1.0000
26.3300 1221.0000 1.0000
26.3400 1183.0000 1.0000
26.3500 1227.0000 1.0000
26.3600 1222.0000 1.0000
26.3700 1267.0000 1.0000
26.3800 1328.0000 1.0000
26.3900 1368.0000 1.0000
26.4000 1387.0000 1.0000
26.4100 1373.0000 1.0000
26.4200 1423.0000 1.0000
26.4300 1484.0000 1.0000
26.4400 1433.0000 1.0000
26.4500 1504.0000 1.0000
26.4600 1494.0000 1.0000
26.4700 1459.0000 1.0000
26.4800 1512.0000 1.0000
26.4900 1528.0000 1.0000
26.5000 1434.0000 1.0000
26.5100 1412.0000 1.0000
26.5200 1395.0000 1.0000
26.5300 1436.0000 1.0000
26.5400 1358.0000 1.0000
26.5500 1305.0000 1.0000
26.5600 1306.0000 1.0000
26.5700 1317.0000 1.0000
26.5800 1207.0000 1.0000
26.5900 1210.0000 1.0000
26.6000 1207.0000 1.0000
26.6100 1192.0000 1.0000
26.6200 1144.0000 1.0000
26.6300 1078.0000 1.0000
26.6400 1102.0000 1.0000
26.6500 1073.0000 1.0000
26.6600 998.0000 1.0000
26.6700 973.0000 1.0000
26.6800 1020.0000 1.0000
26.6900 1006.0000 1.0000
26.7000 1020.0000 1.0000
26.7100 940.0000 1.0000
26.7200 929.0000 1.0000
26.7300 935.0000 1.0000
26.7400 946.0000 1.0000
26.7500 923.0000 1.0000
26.7600 926.0000 1.0000
26.7700 953.0000 1.0000
26.7800 893.0000 1.0000
26.7900 891.0000 1.0000
26.8000 864.0000 1.0000
26.8100 876.0000 1.0000
26.8200 879.0000 1.0000
26.8300 837.0000 1.0000
26.8400 814.0000 1.0000
26.8500 881.0000 1.0000
26.8600 904.0000 1.0000
26.8700 825.0000 1.0000
26.8800 837.0000 1.0000
26.8900 835.0000 1.0000
26.9000 826.0000 1.0000
26.9100 829.0000 1.0000
26.9200 824.0000 1.0000
26.9300 764.0000 1.0000
26.9400 793.0000 1.0000
26.9500 818.0000 1.0000
26.9600 768.0000 1.0000
26.9700 775.0000 1.0000
26.9800 745.0000 1.0000
26.9900 763.0000 1.0000
27.0000 765.0000 1.0000
27.0100 838.0000 1.0000
27.0200 821.0000 1.0000
27.0300 788.0000 1.0000
27.0400 789.0000 1.0000
27.0500 779.0000 1.0000
27.0600 753.0000 1.0000
27.0700 759.0000 1.0000
27.0800 786.0000 1.0000
27.0900 760.0000 1.0000
27.1000 793.0000 1.0000
27.1100 764.0000 1.0000
27.1200 758.0000 1.0000
27.1300 778.0000 1.0000
27.1400 743.0000 1.0000
27.1500 755.0000 1.0000
27.1600 769.0000 1.0000
27.1700 764.0000 1.0000
27.1800 782.0000 1.0000
27.1900 759.0000 1.0000
27.2000 775.0000 1.0000
27.2100 754.0000 1.0000
27.2200 737.0000 1.0000
27.2300 786.0000 1.0000
27.2400 775.0000 1.0000
27.2500 743.0000 1.0000
27.2600 705.0000 1.0000
27.2700 720.0000 1.0000
27.2800 745.0000 1.0000
27.2900 703.0000 1.0000
27.3000 745.0000 1.0000
27.3100 726.0000 1.0000
27.3200 722.0000 1.0000
27.3300 726.0000 1.0000
27.3400 707.0000 1.0000
27.3500 768.0000 1.0000
27.3600 711.0000 1.0000
27.3700 756.0000 1.0000
27.3800 782.0000 1.0000
27.3900 780.0000 1.0000
27.4000 754.0000 1.0000
27.4100 781.0000 1.0000
27.4200 748.0000 1.0000
27.4300 757.0000 1.0000
27.4400 723.0000 1.0000
27.4500 676.0000 1.0000
27.4600 708.0000 1.0000
27.4700 745.0000 1.0000
27.4800 716.0000 1.0000
27.4900 678.0000 1.0000
27.5000 709.0000 1.0000
27.5100 736.0000 1.0000
27.5200 757.0000 1.0000
27.5300 729.0000 1.0000
27.5400 726.0000 1.0000
27.5500 714.0000 1.0000
27.5600 716.0000 1.0000
27.5700 723.0000 1.0000
27.5800 695.0000 1.0000
27.5900 702.0000 1.0000
27.6000 717.0000 1.0000
27.6100 686.0000 1.0000
27.6200 724.0000 1.0000
27.6300 731.0000 1.0000
27.6400 736.0000 1.0000
27.6500 718.0000 1.0000
27.6600 738.0000 1.0000
27.6700 730.0000 1.0000
27.6800 701.0000 1.0000
27.6900 703.0000 1.0000
27.7000 734.0000 1.0000
27.7100 759.0000 1.0000
27.7200 710.0000 1.0000
27.7300 718.0000 1.0000
27.7400 689.0000 1.0000
27.7500 686.0000 1.0000
27.7600 705.0000 1.0000
27.7700 760.0000 1.0000
27.7800 713.0000 1.0000
27.7900 725.0000 1.0000
27.8000 719.0000 1.0000
27.8100 752.0000 1.0000
27.8200 708.0000 1.0000
27.8300 710.0000 1.0000
27.8400 758.0000 1.0000
27.8500 718.0000 1.0000
27.8600 713.0000 1.0000
27.8700 711.0000 1.0000
27.8800 747.0000 1.0000
27.8900 729.0000 1.0000
27.9000 716.0000 1.0000
27.9100 686.0000 1.0000
27.9200 694.0000 1.0000
27.9300 671.0000 1.0000
27.9400 699.0000 1.0000
27.9500 734.0000 1.0000
27.9600 740.0000 1.0000
27.9700 711.0000 1.0000
27.9800 699.0000 1.0000
27.9900 704.0000 1.0000
28.0000 698.0000 1.0000
28.0100 652.0000 1.0000
28.0200 696.0000 1.0000
28.0300 687.0000 1.0000
28.0400 733.0000 1.0000
28.0500 712.0000 1.0000
28.0600 709.0000 1.0000
28.0700 691.0000 1.0000
28.0800 695.0000 1.0000
28.0900 737.0000 1.0000
28.1000 689.0000 1.0000
28.1100 699.0000 1.0000
28.1200 730.0000 1.0000
28.1300 751.0000 1.0000
28.1400 748.0000 1.0000
28.1500 709.0000 1.0000
28.1600 653.0000 1.0000
28.1700 701.0000 1.0000
28.1800 705.0000 1.0000
28.1900 722.0000 1.0000
28.2000 693.0000 1.0000
28.2100 688.0000 1.0000
28.2200 679.0000 1.0000
28.2300 698.0000 1.0000
28.2400 708.0000 1.0000
28.2500 716.0000 1.0000
28.2600 669.0000 1.0000
28.2700 688.0000 1.0000
28.2800 703.0000 1.0000
28.2900 697.0000 1.0000
28.3000 748.0000 1.0000
28.3100 676.0000 1.0000
28.3200 726.0000 1.0000
28.3300 728.0000 1.0000
28.3400 686.0000 1.0000
28.3500 687.0000 1.0000
28.3600 686.0000 1.0000
28.3700 688.0000 1.0000
28.3800 678.0000 1.0000
28.3900 682.0000 1.0000
28.4000 674.0000 1.0000
28.4100 704.0000 1.0000
28.4200 692.0000 1.0000
28.4300 692.0000 1.0000
28.4400 678.0000 1.0000
28.4500 745.0000 1.0000
28.4600 711.0000 1.0000
28.4700 729.0000 1.0000
28.4800 692.0000 1.0000
28.4900 717.0000 1.0000
28.5000 656.0000 1.0000
28.5100 664.0000 1.0000
28.5200 699.0000 1.0000
28.5300 664.0000 1.0000
28.5400 672.0000 1.0000
28.5500 678.0000 1.0000
28.5600 675.0000 1.0000
28.5700 689.0000 1.0000
28.5800 667.0000 1.0000
28.5900 664.0000 1.0000
28.6000 647.0000 1.0000
28.6100 717.0000 1.0000
28.6200 690.0000 1.0000
28.6300 715.0000 1.0000
28.6400 723.0000 1.0000
28.6500 691.0000 1.0000
28.6600 706.0000 1.0000
28.6700 657.0000 1.0000
28.6800 675.0000 1.0000
28.6900 631.0000 1.0000
28.7000 698.0000 1.0000
28.7100 692.0000 1.0000
28.7200 696.0000 1.0000
28.7300 730.0000 1.0000
28.7400 711.0000 1.0000
28.7500 700.0000 1.0000
28.7600 650.0000 1.0000
28.7700 660.0000 1.0000
28.7800 715.0000 1.0000
28.7900 690.0000 1.0000
28.8000 694.0000 1.0000
28.8100 712.0000 1.0000
28.8200 677.0000 1.0000
28.8300 688.0000 1.0000
28.8400 669.0000 1.0000
28.8500 708.0000 1.0000
28.8600 681.0000 1.0000
28.8700 687.0000 1.0000
28.8800 708.0000 1.0000
28.8900 648.0000 1.0000
28.9000 643.0000 1.0000
28.9100 684.0000 1.0000
28.9200 662.0000 1.0000
28.9300 656.0000 1.0000
28.9400 674.0000 1.0000
28.9500 692.0000 1.0000
28.9600 650.0000 1.0000
28.9700 676.0000 1.0000
28.9800 676.0000 1.0000
28.9900 666.0000 1.0000
29.0000 656.0000 1.0000
29.0100 680.0000 1.0000
29.0200 675.0000 1.0000
29.0300 657.0000 1.0000
29.0400 687.0000 1.0000
29.0500 729.0000 1.0000
29.0600 653.0000 1.0000
29.0700 659.0000 1.0000
29.0800 668.0000 1.0000
29.0900 634.0000 1.0000
29.1000 674.0000 1.0000
29.1100 696.0000 1.0000
29.1200 664.0000 1.0000
29.1300 706.0000 1.0000
29.1400 682.0000 1.0000
29.1500 687.0000 1.0000
29.1600 678.0000 1.0000
29.1700 653.0000 1.0000
29.1800 683.0000 1.0000
29.1900 652.0000 1.0000
29.2000 695.0000 1.0000
29.2100 688.0000 1.0000
29.2200 659.0000 1.0000
29.2300 674.0000 1.0000
29.2400 678.0000 1.0000
29.2500 669.0000 1.0000
29.2600 643.0000 1.0000
29.2700 676.0000 1.0000
29.2800 659.0000 1.0000
29.2900 675.0000 1.0000
29.3000 657.0000 1.0000
29.3100 673.0000 1.0000
29.3200 660.0000 1.0000
29.3300 668.0000 1.0000
29.3400 652.0000 1.0000
29.3500 696.0000 1.0000
29.3600 666.0000 1.0000
29.3700 668.0000 1.0000
29.3800 687.0000 1.0000
29.3900 677.0000 1.0000
29.4000 653.0000 1.0000
29.4100 641.0000 1.0000
29.4200 699.0000 1.0000
29.4300 688.0000 1.0000
29.4400 709.0000 1.0000
29.4500 652.0000 1.0000
29.4600 666.0000 1.0000
29.4700 697.0000 1.0000
29.4800 651.0000 1.0000
29.4900 661.0000 1.0000
29.5000 647.0000 1.0000
29.5100 649.0000 1.0000
29.5200 648.0000 1.0000
29.5300 630.0000 1.0000
29.5400 663.0000 1.0000
29.5500 703.0000 1.0000
29.5600 656.0000 1.0000
29.5700 636.0000 1.0000
29.5800 631.0000 1.0000
29.5900 704.0000 1.0000
29.6000 638.0000 1.0000
29.6100 594.0000 1.0000
29.6200 616.0000 1.0000
29.6300 668.0000 1.0000
29.6400 661.0000 1.0000
29.6500 638.0000 1.0000
29.6600 646.0000 1.0000
29.6700 623.0000 1.0000
29.6800 627.0000 1.0000
29.6900 679.0000 1.0000
29.7000 618.0000 1.0000
29.7100 610.0000 1.0000
29.7200 642.0000 1.0000
29.7300 651.0000 1.0000
29.7400 652.0000 1.0000
29.7500 630.0000 1.0000
29.7600 680.0000 1.0000
29.7700 645.0000 1.0000
29.7800 603.0000 1.0000
29.7900 621.0000 1.0000
29.8000 675.0000 1.0000
29.8100 670.0000 1.0000
29.8200 673.0000 1.0000
29.8300 684.0000 1.0000
29.8400 656.0000 1.0000
29.8500 687.0000 1.0000
29.8600 619.0000 1.0000
29.8700 616.0000 1.0000
29.8800 657.0000 1.0000
29.8900 658.0000 1.0000
29.9000 633.0000 1.0000
29.9100 634.0000 1.0000
29.9200 644.0000 1.0000
29.9300 626.0000 1.0000
29.9400 661.0000 1.0000
29.9500 685.0000 1.0000
29.9600 626.0000 1.0000
29.9700 642.0000 1.0000
29.9800 648.0000 1.0000
29.9900 648.0000 1.0000
30.0000 642.0000 1.0000
30.0100 616.0000 1.0000
30.0200 650.0000 1.0000
30.0300 651.0000 1.0000
30.0400 598.0000 1.0000
30.0500 620.0000 1.0000
30.0600 659.0000 1.0000
30.0700 646.0000 1.0000
30.0800 647.0000 1.0000
30.0900 622.0000 1.0000
30.1000 640.0000 1.0000
30.1100 608.0000 1.0000
30.1200 648.0000 1.0000
30.1300 663.0000 1.0000
30.1400 661.0000 1.0000
30.1500 667.0000 1.0000
30.1600 653.0000 1.0000
30.1700 618.0000 1.0000
30.1800 697.0000 1.0000
30.1900 641.0000 1.0000
30.2000 650.0000 1.0000
30.2100 682.0000 1.0000
30.2200 707.0000 1.0000
30.2300 636.0000 1.0000
30.2400 673.0000 1.0000
30.2500 649.0000 1.0000
30.2600 653.0000 1.0000
30.2700 656.0000 1.0000
30.2800 663.0000 1.0000
30.2900 627.0000 1.0000
30.3000 646.0000 1.0000
30.3100 602.0000 1.0000
30.3200 647.0000 1.0000
30.3300 629.0000 1.0000
30.3400 629.0000 1.0000
30.3500 634.0000 1.0000
30.3600 636.0000 1.0000
30.3700 636.0000 1.0000
30.3800 680.0000 1.0000
30.3900 608.0000 1.0000
30.4000 599.0000 1.0000
30.4100 603.0000 1.0000
30.4200 637.0000 1.0000
30.4300 663.0000 1.0000
30.4400 644.0000 1.0000
30.4500 670.0000 1.0000
30.4600 655.0000 1.0000
30.4700 637.0000 1.0000
30.4800 666.0000 1.0000
30.4900 643.0000 1.0000
30.5000 635.0000 1.0000
30.5100 603.0000 1.0000
30.5200 644.0000 1.0000
30.5300 634.0000 1.0000
30.5400 652.0000 1.0000
30.5500 615.0000 1.0000
30.5600 663.0000 1.0000
30.5700 635.0000 1.0000
30.5800 629.0000 1.0000
30.5900 615.0000 1.0000
30.6000 644.0000 1.0000
30.6100 610.0000 1.0000
30.6200 674.0000 1.0000
30.6300 634.0000 1.0000
30.6400 625.0000 1.0000
30.6500 669.0000 1.0000
30.6600 640.0000 1.0000
30.6700 664.0000 1.0000
30.6800 652.0000 1.0000
30.6900 613.0000 1.0000
30.7000 647.0000 1.0000
30.7100 631.0000 1.0000
30.7200 643.0000 1.0000
30.7300 634.0000 1.0000
30.7400 621.0000 1.0000
30.7500 634.0000 1.0000
30.7600 590.0000 1.0000
30.7700 635.0000 1.0000
30.7800 634.0000 1.0000
30.7900 649.0000 1.0000
30.8000 620.0000 1.0000
30.8100 625.0000 1.0000
30.8200 659.0000 1.0000
30.8300 606.0000 1.0000
30.8400 577.0000 1.0000
30.8500 617.0000 1.0000
30.8600 641.0000 1.0000
30.8700 639.0000 1.0000
30.8800 623.0000 1.0000
30.8900 626.0000 1.0000
30.9000 586.0000 1.0000
30.9100 621.0000 1.0000
30.9200 624.0000 1.0000
30.9300 585.0000 1.0000
30.9400 653.0000 1.0000
30.9500 615.0000 1.0000
30.9600 635.0000 1.0000
30.9700 618.0000 1.0000
30.9800 616.0000 1.0000
30.9900 618.0000 1.0000
31.0000 625.0000 1.0000
31.0100 634.0000 1.0000
31.0200 640.0000 1.0000
31.0300 688.0000 1.0000
31.0400 629.0000 1.0000
31.0500 642.0000 1.0000
31.0600 657.0000 1.0000
31.0700 643.0000 1.0000
31.0800 644.0000 1.0000
31.0900 685.0000 1.0000
31.1000 679.0000 1.0000
31.1100 633.0000 1.0000
31.1200 641.0000 1.0000
31.1300 645.0000 1.0000
31.1400 717.0000 1.0000
31.1500 612.0000 1.0000
31.1600 643.0000 1.0000
31.1700 655.0000 1.0000
31.1800 628.0000 1.0000
31.1900 666.0000 1.0000
31.2000 632.0000 1.0000
31.2100 642.0000 1.0000
31.2200 651.0000 1.0000
31.2300 644.0000 1.0000
31.2400 655.0000 1.0000
31.2500 645.0000 1.0000
31.2600 647.0000 1.0000
31.2700 609.0000 1.0000
31.2800 621.0000 1.0000
31.2900 649.0000 1.0000
31.3000 612.0000 1.0000
31.3100 625.0000 1.0000
31.3200 630.0000 1.0000
31.3300 660.0000 1.0000
31.3400 613.0000 1.0000
31.3500 638.0000 1.0000
31.3600 646.0000 1.0000
31.3700 625.0000 1.0000
31.3800 614.0000 1.0000
31.3900 623.0000 1.0000
31.4000 615.0000 1.0000
31.4100 627.0000 1.0000
31.4200 609.0000 1.0000
31.4300 615.0000 1.0000
31.4400 630.0000 1.0000
31.4500 608.0000 1.0000
31.4600 657.0000 1.0000
31.4700 597.0000 1.0000
31.4800 642.0000 1.0000
31.4900 604.0000 1.0000
31.5000 619.0000 1.0000
31.5100 655.0000 1.0000
31.5200 622.0000 1.0000
31.5300 600.0000 1.0000
31.5400 627.0000 1.0000
31.5500 625.0000 1.0000
31.5600 602.0000 1.0000
31.5700 638.0000 1.0000
31.5800 630.0000 1.0000
31.5900 630.0000 1.0000
31.6000 601.0000 1.0000
31.6100 632.0000 1.0000
31.6200 611.0000 1.0000
31.6300 623.0000 1.0000
31.6400 627.0000 1.0000
31.6500 620.0000 1.0000
31.6600 592.0000 1.0000
31.6700 596.0000 1.0000
31.6800 605.0000 1.0000
31.6900 637.0000 1.0000
31.7000 578.0000 1.0000
31.7100 619.0000 1.0000
31.7200 595.0000 1.0000
31.7300 603.0000 1.0000
31.7400 626.0000 1.0000
31.7500 612.0000 1.0000
31.7600 604.0000 1.0000
31.7700 625.0000 1.0000
31.7800 597.0000 1.0000
31.7900 604.0000 1.0000
31.8000 600.0000 1.0000
31.8100 605.0000 1.0000
31.8200 599.0000 1.0000
31.8300 593.0000 1.0000
31.8400 616.0000 1.0000
31.8500 618.0000 1.0000
31.8600 640.0000 1.0000
31.8700 639.0000 1.0000
31.8800 561.0000 1.0000
31.8900 539.0000 1.0000
31.9000 591.0000 1.0000
31.9100 629.0000 1.0000
31.9200 606.0000 1.0000
31.9300 596.0000 1.0000
31.9400 625.0000 1.0000
31.9500 618.0000 1.0000
31.9600 603.0000 1.0000
31.9700 615.0000 1.0000
31.9800 605.0000 1.0000
31.9900 627.0000 1.0000
32.0000 626.0000 1.0000
32.0100 589.0000 1.0000
32.0200 612.0000 1.0000
32.0300 599.0000 1.0000
32.0400 586.0000 1.0000
32.0500 599.0000 1.0000
32.0600 632.0000 1.0000
32.0700 620.0000 1.0000
32.0800 630.0000 1.0000
32.0900 617.0000 1.0000
32.1000 601.0000 1.0000
32.1100 592.0000 1.0000
32.1200 569.0000 1.0000
32.1300 596.0000 1.0000
32.1400 619.0000 1.0000
32.1500 594.0000 1.0000
32.1600 600.0000 1.0000
32.1700 581.0000 1.0000
32.1800 606.0000 1.0000
32.1900 597.0000 1.0000
32.2000 599.0000 1.0000
32.2100 608.0000 1.0000
32.2200 585.0000 1.0000
32.2300 585.0000 1.0000
32.2400 602.0000 1.0000
32.2500 596.0000 1.0000
32.2600 629.0000 1.0000
32.2700 588.0000 1.0000
32.2800 596.0000 1.0000
32.2900 590.0000 1.0000
32.3000 595.0000 1.0000
32.3100 614.0000 1.0000
32.3200 583.0000 1.0000
32.3300 582.0000 1.0000
32.3400 566.0000 1.0000
32.3500 563.0000 1.0000
32.3600 574.0000 1.0000
32.3700 569.0000 1.0000
32.3800 550.0000 1.0000
32.3900 565.0000 1.0000
32.4000 569.0000 1.0000
32.4100 580.0000 1.0000
32.4200 590.0000 1.0000
32.4300 607.0000 1.0000
32.4400 602.0000 1.0000
32.4500 585.0000 1.0000
32.4600 611.0000 1.0000
32.4700 581.0000 1.0000
32.4800 620.0000 1.0000
32.4900 587.0000 1.0000
32.5000 602.0000 1.0000
32.5100 601.0000 1.0000
32.5200 559.0000 1.0000
32.5300 588.0000 1.0000
32.5400 578.0000 1.0000
32.5500 605.0000 1.0000
32.5600 575.0000 1.0000
32.5700 596.0000 1.0000
32.5800 581.0000 1.0000
32.5900 571.0000 1.0000
32.6000 614.0000 1.0000
32.6100 577.0000 1.0000
32.6200 543.0000 1.0000
32.6300 613.0000 1.0000
32.6400 555.0000 1.0000
32.6500 572.0000 1.0000
32.6600 581.0000 1.0000
32.6700 620.0000 1.0000
32.6800 646.0000 1.0000
32.6900 575.0000 1.0000
32.7000 610.0000 1.0000
32.7100 564.0000 1.0000
32.7200 578.0000 1.0000
32.7300 585.0000 1.0000
32.7400 589.0000 1.0000
32.7500 578.0000 1.0000
32.7600 571.0000 1.0000
32.7700 586.0000 1.0000
32.7800 585.0000 1.0000
32.7900 600.0000 1.0000
32.8000 606.0000 1.0000
32.8100 592.0000 1.0000
32.8200 605.0000 1.0000
32.8300 598.0000 1.0000
32.8400 558.0000 1.0000
32.8500 581.0000 1.0000
32.8600 592.0000 1.0000
32.8700 630.0000 1.0000
32.8800 625.0000 1.0000
32.8900 615.0000 1.0000
32.9000 636.0000 1.0000
32.9100 606.0000 1.0000
32.9200 591.0000 1.0000
32.9300 606.0000 1.0000
32.9400 627.0000 1.0000
32.9500 630.0000 1.0000
32.9600 623.0000 1.0000
32.9700 640.0000 1.0000
32.9800 655.0000 1.0000
32.9900 691.0000 1.0000
33.0000 632.0000 1.0000
33.0100 714.0000 1.0000
33.0200 677.0000 1.0000
33.0300 696.0000 1.0000
33.0400 643.0000 1.0000
33.0500 733.0000 1.0000
33.0600 715.0000 1.0000
33.0700 735.0000 1.0000
33.0800 765.0000 1.0000
33.0900 756.0000 1.0000
33.1000 762.0000 1.0000
33.1100 793.0000 1.0000
33.1200 779.0000 1.0000
33.1300 766.0000 1.0000
33.1400 766.0000 1.0000
33.1500 782.0000 1.0000
33.1600 778.0000 1.0000
33.1700 766.0000 1.0000
33.1800 746.0000 1.0000
33.1900 763.0000 1.0000
33.2000 757.0000 1.0000
33.2100 752.0000 1.0000
33.2200 699.0000 1.0000
33.2300 738.0000 1.0000
33.2400 721.0000 1.0000
33.2500 717.0000 1.0000
33.2600 679.0000 1.0000
33.2700 665.0000 1.0000
33.2800 674.0000 1.0000
33.2900 666.0000 1.0000
33.3000 655.0000 1.0000
33.3100 642.0000 1.0000
33.3200 613.0000 1.0000
33.3300 618.0000 1.0000
33.3400 605.0000 1.0000
33.3500 633.0000 1.0000
33.3600 654.0000 1.0000
33.3700 610.0000 1.0000
33.3800 615.0000 1.0000
33.3900 638.0000 1.0000
33.4000 640.0000 1.0000
33.4100 589.0000 1.0000
33.4200 599.0000 1.0000
33.4300 612.0000 1.0000
33.4400 586.0000 1.0000
33.4500 631.0000 1.0000
33.4600 664.0000 1.0000
33.4700 638.0000 1.0000
33.4800 686.0000 1.0000
33.4900 700.0000 1.0000
33.5000 657.0000 1.0000
33.5100 678.0000 1.0000
33.5200 632.0000 1.0000
33.5300 674.0000 1.0000
33.5400 687.0000 1.0000
33.5500 696.0000 1.0000
33.5600 694.0000 1.0000
33.5700 686.0000 1.0000
33.5800 711.0000 1.0000
33.5900 676.0000 1.0000
33.6000 706.0000 1.0000
33.6100 733.0000 1.0000
33.6200 756.0000 1.0000
33.6300 755.0000 1.0000
33.6400 734.0000 1.0000
33.6500 722.0000 1.0000
33.6600 716.0000 1.0000
33.6700 749.0000 1.0000
33.6800 766.0000 1.0000
33.6900 738.0000 1.0000
33.7000 757.0000 1.0000
33.7100 710.0000 1.0000
33.7200 761.0000 1.0000
33.7300 730.0000 1.0000
33.7400 736.0000 1.0000
33.7500 722.0000 1.0000
33.7600 757.0000 1.0000
33.7700 711.0000 1.0000
33.7800 697.0000 1.0000
33.7900 741.0000 1.0000
33.8000 676.0000 1.0000
33.8100 695.0000 1.0000
33.8200 647.0000 1.0000
33.8300 696.0000 1.0000
33.8400 656.0000 1.0000
33.8500 692.0000 1.0000
33.8600 645.0000 1.0000
33.8700 675.0000 1.0000
33.8800 649.0000 1.0000
33.8900 687.0000 1.0000
33.9000 631.0000 1.0000
33.9100 664.0000 1.0000
33.9200 615.0000 1.0000
33.9300 664.0000 1.0000
33.9400 650.0000 1.0000
33.9500 598.0000 1.0000
33.9600 620.0000 1.0000
33.9700 600.0000 1.0000
33.9800 590.0000 1.0000
33.9900 624.0000 1.0000
34.0000 639.0000 1.0000
34.0100 611.0000 1.0000
34.0200 656.0000 1.0000
34.0300 598.0000 1.0000
34.0400 616.0000 1.0000
34.0500 605.0000 1.0000
34.0600 563.0000 1.0000
34.0700 607.0000 1.0000
34.0800 589.0000 1.0000
34.0900 606.0000 1.0000
34.1000 603.0000 1.0000
34.1100 580.0000 1.0000
34.1200 634.0000 1.0000
34.1300 578.0000 1.0000
34.1400 534.0000 1.0000
34.1500 587.0000 1.0000
34.1600 600.0000 1.0000
34.1700 573.0000 1.0000
34.1800 567.0000 1.0000
34.1900 560.0000 1.0000
34.2000 579.0000 1.0000
34.2100 568.0000 1.0000
34.2200 563.0000 1.0000
34.2300 551.0000 1.0000
34.2400 584.0000 1.0000
34.2500 598.0000 1.0000
34.2600 558.0000 1.0000
34.2700 554.0000 1.0000
34.2800 562.0000 1.0000
34.2900 532.0000 1.0000
34.3000 558.0000 1.0000
34.3100 546.0000 1.0000
34.3200 537.0000 1.0000
34.3300 524.0000 1.0000
34.3400 602.0000 1.0000
34.3500 543.0000 1.0000
34.3600 557.0000 1.0000
34.3700 542.0000 1.0000
34.3800 546.0000 1.0000
34.3900 523.0000 1.0000
34.4000 571.0000 1.0000
34.4100 542.0000 1.0000
34.4200 542.0000 1.0000
34.4300 569.0000 1.0000
34.4400 561.0000 1.0000
34.4500 550.0000 1.0000
34.4600 569.0000 1.0000
34.4700 524.0000 1.0000
34.4800 502.0000 1.0000
34.4900 546.0000 1.0000
34.5000 559.0000 1.0000
34.5100 530.0000 1.0000
34.5200 565.0000 1.0000
34.5300 548.0000 1.0000
34.5400 557.0000 1.0000
34.5500 542.0000 1.0000
34.5600 538.0000 1.0000
34.5700 487.0000 1.0000
34.5800 497.0000 1.0000
34.5900 523.0000 1.0000
34.6000 529.0000 1.0000
34.6100 554.0000 1.0000
34.6200 494.0000 1.0000
34.6300 539.0000 1.0000
34.6400 555.0000 1.0000
34.6500 529.0000 1.0000
34.6600 521.0000 1.0000
34.6700 549.0000 1.0000
34.6800 509.0000 1.0000
34.6900 494.0000 1.0000
34.7000 527.0000 1.0000
34.7100 565.0000 1.0000
34.7200 482.0000 1.0000
34.7300 552.0000 1.0000
34.7400 526.0000 1.0000
34.7500 548.0000 1.0000
34.7600 519.0000 1.0000
34.7700 547.0000 1.0000
34.7800 537.0000 1.0000
34.7900 577.0000 1.0000
34.8000 542.0000 1.0000
34.8100 556.0000 1.0000
34.8200 513.0000 1.0000
34.8300 511.0000 1.0000
34.8400 547.0000 1.0000
34.8500 514.0000 1.0000
34.8600 497.0000 1.0000
34.8700 521.0000 1.0000
34.8800 539.0000 1.0000
34.8900 513.0000 1.0000
34.9000 517.0000 1.0000
34.9100 538.0000 1.0000
34.9200 546.0000 1.0000
34.9300 502.0000 1.0000
34.9400 506.0000 1.0000
34.9500 529.0000 1.0000
34.9600 488.0000 1.0000
34.9700 546.0000 1.0000
34.9800 526.0000 1.0000
34.9900 544.0000 1.0000
35.0000 494.0000 1.0000
35.0100 520.0000 1.0000
35.0200 500.0000 1.0000
35.0300 550.0000 1.0000
35.0400 530.0000 1.0000
35.0500 539.0000 1.0000
35.0600 513.0000 1.0000
35.0700 524.0000 1.0000
35.0800 496.0000 1.0000
35.0900 531.0000 1.0000
35.1000 521.0000 1.0000
35.1100 495.0000 1.0000
35.1200 492.0000 1.0000
35.1300 499.0000 1.0000
35.1400 544.0000 1.0000
35.1500 529.0000 1.0000
35.1600 512.0000 1.0000
35.1700 542.0000 1.0000
35.1800 540.0000 1.0000
35.1900 539.0000 1.0000
35.2000 547.0000 1.0000
35.2100 576.0000 1.0000
35.2200 590.0000 1.0000
35.2300 554.0000 1.0000
35.2400 540.0000 1.0000
35.2500 540.0000 1.0000
35.2600 520.0000 1.0000
35.2700 524.0000 1.0000
35.2800 552.0000 1.0000
35.2900 571.0000 1.0000
35.3000 574.0000 1.0000
35.3100 605.0000 1.0000
35.3200 561.0000 1.0000
35.3300 615.0000 1.0000
35.3400 623.0000 1.0000
35.3500 644.0000 1.0000
35.3600 616.0000 1.0000
35.3700 659.0000 1.0000
35.3800 688.0000 1.0000
35.3900 665.0000 1.0000
35.4000 683.0000 1.0000
35.4100 687.0000 1.0000
35.4200 666.0000 1.0000
35.4300 777.0000 1.0000
35.4400 775.0000 1.0000
35.4500 799.0000 1.0000
35.4600 799.0000 1.0000
35.4700 856.0000 1.0000
35.4800 912.0000 1.0000
35.4900 977.0000 1.0000
35.5000 1021.0000 1.0000
35.5100 1099.0000 1.0000
35.5200 1158.0000 1.0000
35.5300 1182.0000 1.0000
35.5400 1259.0000 1.0000
35.5500 1328.0000 1.0000
35.5600 1348.0000 1.0000
35.5700 1454.0000 1.0000
35.5800 1467.0000 1.0000
35.5900 1434.0000 1.0000
35.6000 1469.0000 1.0000
35.6100 1437.0000 1.0000
35.6200 1452.0000 1.0000
35.6300 1426.0000 1.0000
35.6400 1393.0000 1.0000
35.6500 1353.0000 1.0000
35.6600 1295.0000 1.0000
35.6700 1245.0000 1.0000
35.6800 1247.0000 1.0000
35.6900 1183.0000 1.0000
35.7000 1126.0000 1.0000
35.7100 1053.0000 1.0000
35.7200 1001.0000 1.0000
35.7300 921.0000 1.0000
35.7400 901.0000 1.0000
35.7500 844.0000 1.0000
35.7600 808.0000 1.0000
35.7700 750.0000 1.0000
35.7800 721.0000 1.0000
35.7900 687.0000 1.0000
35.8000 639.0000 1.0000
35.8100 632.0000 1.0000
35.8200 630.0000 1.0000
35.8300 598.0000 1.0000
35.8400 577.0000 1.0000
35.8500 584.0000 1.0000
35.8600 593.0000 1.0000
35.8700 566.0000 1.0000
35.8800 581.0000 1.0000
35.8900 561.0000 1.0000
35.9000 547.0000 1.0000
35.9100 554.0000 1.0000
35.9200 502.0000 1.0000
35.9300 540.0000 1.0000
35.9400 505.0000 1.0000
35.9500 537.0000 1.0000
35.9600 559.0000 1.0000
35.9700 548.0000 1.0000
35.9800 500.0000 1.0000
35.9900 509.0000 1.0000
36.0000 518.0000 1.0000
36.0100 498.0000 1.0000
36.0200 506.0000 1.0000
36.0300 517.0000 1.0000
36.0400 522.0000 1.0000
36.0500 470.0000 1.0000
36.0600 497.0000 1.0000
36.0700 508.0000 1.0000
36.0800 485.0000 1.0000
36.0900 493.0000 1.0000
36.1000 511.0000 1.0000
36.1100 490.0000 1.0000
36.1200 506.0000 1.0000
36.1300 505.0000 1.0000
36.1400 496.0000 1.0000
36.1500 483.0000 1.0000
36.1600 480.0000 1.0000
36.1700 463.0000 1.0000
36.1800 477.0000 1.0000
36.1900 513.0000 1.0000
36.2000 505.0000 1.0000
36.2100 521.0000 1.0000
36.2200 484.0000 1.0000
36.2300 498.0000 1.0000
36.2400 469.0000 1.0000
36.2500 516.0000 1.0000
36.2600 508.0000 1.0000
36.2700 492.0000 1.0000
36.2800 532.0000 1.0000
36.2900 504.0000 1.0000
36.3000 459.0000 1.0000
36.3100 518.0000 1.0000
36.3200 485.0000 1.0000
36.3300 496.0000 1.0000
36.3400 490.0000 1.0000
36.3500 475.0000 1.0000
36.3600 506.0000 1.0000
36.3700 505.0000 1.0000
36.3800 473.0000 1.0000
36.3900 464.0000 1.0000
36.4000 485.0000 1.0000
36.4100 499.0000 1.0000
36.4200 525.0000 1.0000
36.4300 482.0000 1.0000
36.4400 484.0000 1.0000
36.4500 518.0000 1.0000
36.4600 512.0000 1.0000
36.4700 499.0000 1.0000
36.4800 478.0000 1.0000
36.4900 502.0000 1.0000
36.5000 498.0000 1.0000
36.5100 481.0000 1.0000
36.5200 500.0000 1.0000
36.5300 487.0000 1.0000
36.5400 491.0000 1.0000
36.5500 470.0000 1.0000
36.5600 484.0000 1.0000
36.5700 509.0000 1.0000
36.5800 549.0000 1.0000
36.5900 506.0000 1.0000
36.6000 515.0000 1.0000
36.6100 504.0000 1.0000
36.6200 489.0000 1.0000
36.6300 504.0000 1.0000
36.6400 471.0000 1.0000
36.6500 487.0000 1.0000
36.6600 490.0000 1.0000
36.6700 487.0000 1.0000
36.6800 502.0000 1.0000
36.6900 463.0000 1.0000
36.7000 499.0000 1.0000
36.7100 481.0000 1.0000
36.7200 516.0000 1.0000
36.7300 485.0000 1.0000
36.7400 482.0000 1.0000
36.7500 486.0000 1.0000
36.7600 450.0000 1.0000
36.7700 520.0000 1.0000
36.7800 498.0000 1.0000
36.7900 528.0000 1.0000
36.8000 495.0000 1.0000
36.8100 521.0000 1.0000
36.8200 466.0000 1.0000
36.8300 498.0000 1.0000
36.8400 511.0000 1.0000
36.8500 489.0000 1.0000
36.8600 467.0000 1.0000
36.8700 480.0000 1.0000
36.8800 492.0000 1.0000
36.8900 499.0000 1.0000
36.9000 545.0000 1.0000
36.9100 531.0000 1.0000
36.9200 488.0000 1.0000
36.9300 529.0000 1.0000
36.9400 510.0000 1.0000
36.9500 498.0000 1.0000
36.9600 519.0000 1.0000
36.9700 523.0000 1.0000
36.9800 501.0000 1.0000
36.9900 501.0000 1.0000
37.0000 530.0000 1.0000
37.0100 486.0000 1.0000
37.0200 451.0000 1.0000
37.0300 505.0000 1.0000
37.0400 519.0000 1.0000
37.0500 488.0000 1.0000
37.0600 522.0000 1.0000
37.0700 524.0000 1.0000
37.0800 523.0000 1.0000
37.0900 505.0000 1.0000
37.1000 525.0000 1.0000
37.1100 553.0000 1.0000
37.1200 521.0000 1.0000
37.1300 517.0000 1.0000
37.1400 512.0000 1.0000
37.1500 552.0000 1.0000
37.1600 526.0000 1.0000
37.1700 525.0000 1.0000
37.1800 554.0000 1.0000
37.1900 502.0000 1.0000
37.2000 540.0000 1.0000
37.2100 545.0000 1.0000
37.2200 548.0000 1.0000
37.2300 532.0000 1.0000
37.2400 543.0000 1.0000
37.2500 588.0000 1.0000
37.2600 565.0000 1.0000
37.2700 544.0000 1.0000
37.2800 587.0000 1.0000
37.2900 521.0000 1.0000
37.3000 526.0000 1.0000
37.3100 595.0000 1.0000
37.3200 612.0000 1.0000
37.3300 625.0000 1.0000
37.3400 603.0000 1.0000
37.3500 622.0000 1.0000
37.3600 650.0000 1.0000
37.3700 675.0000 1.0000
37.3800 659.0000 1.0000
37.3900 686.0000 1.0000
37.4000 686.0000 1.0000
37.4100 739.0000 1.0000
37.4200 702.0000 1.0000
37.4300 733.0000 1.0000
37.4400 744.0000 1.0000
37.4500 800.0000 1.0000
37.4600 871.0000 1.0000
37.4700 865.0000 1.0000
37.4800 882.0000 1.0000
37.4900 908.0000 1.0000
37.5000 970.0000 1.0000
37.5100 992.0000 1.0000
37.5200 1017.0000 1.0000
37.5300 1089.0000 1.0000
37.5400 1135.0000 1.0000
37.5500 1232.0000 1.0000
37.5600 1255.0000 1.0000
37.5700 1287.0000 1.0000
37.5800 1399.0000 1.0000
37.5900 1446.0000 1.0000
37.6000 1553.0000 1.0000
37.6100 1646.0000 1.0000
37.6200 1786.0000 1.0000
37.6300 1816.0000 1.0000
37.6400 2014.0000 1.0000
37.6500 2116.0000 1.0000
37.6600 2265.0000 1.0000
37.6700 2385.0000 1.0000
37.6800 2545.0000 1.0000
37.6900 2683.0000 1.0000
37.7000 2759.0000 1.0000
37.7100 2887.0000 1.0000
37.7200 3042.0000 1.0000
37.7300 3089.0000 1.0000
37.7400 3143.0000 1.0000
37.7500 3119.0000 1.0000
37.7600 3138.0000 1.0000
37.7700 3103.0000 1.0000
37.7800 3068.0000 1.0000
37.7900 2979.0000 1.0000
37.8000 2921.0000 1.0000
37.8100 2830.0000 1.0000
37.8200 2797.0000 1.0000
37.8300 2666.0000 1.0000
37.8400 2424.0000 1.0000
37.8500 2345.0000 1.0000
37.8600 2317.0000 1.0000
37.8700 2122.0000 1.0000
37.8800 2057.0000 1.0000
37.8900 1823.0000 1.0000
37.9000 1818.0000 1.0000
37.9100 1675.0000 1.0000
37.9200 1557.0000 1.0000
37.9300 1492.0000 1.0000
37.9400 1421.0000 1.0000
37.9500 1340.0000 1.0000
37.9600 1292.0000 1.0000
37.9700 1159.0000 1.0000
37.9800 1078.0000 1.0000
37.9900 1034.0000 1.0000
38.0000 1029.0000 1.0000
38.0100 947.0000 1.0000
38.0200 920.0000 1.0000
38.0300 850.0000 1.0000
38.0400 867.0000 1.0000
38.0500 822.0000 1.0000
38.0600 758.0000 1.0000
38.0700 773.0000 1.0000
38.0800 739.0000 1.0000
38.0900 726.0000 1.0000
38.1000 677.0000 1.0000
38.1100 694.0000 1.0000
38.1200 673.0000 1.0000
38.1300 676.0000 1.0000
38.1400 585.0000 1.0000
38.1500 610.0000 1.0000
38.1600 585.0000 1.0000
38.1700 631.0000 1.0000
38.1800 558.0000 1.0000
38.1900 562.0000 1.0000
38.2000 544.0000 1.0000
38.2100 571.0000 1.0000
38.2200 573.0000 1.0000
38.2300 572.0000 1.0000
38.2400 543.0000 1.0000
38.2500 524.0000 1.0000
38.2600 544.0000 1.0000
38.2700 504.0000 1.0000
38.2800 509.0000 1.0000
38.2900 508.0000 1.0000
38.3000 531.0000 1.0000
38.3100 497.0000 1.0000
38.3200 503.0000 1.0000
38.3300 477.0000 1.0000
38.3400 518.0000 1.0000
38.3500 497.0000 1.0000
38.3600 517.0000 1.0000
38.3700 504.0000 1.0000
38.3800 484.0000 1.0000
38.3900 460.0000 1.0000
38.4000 493.0000 1.0000
38.4100 492.0000 1.0000
38.4200 513.0000 1.0000
38.4300 482.0000 1.0000
38.4400 437.0000 1.0000
38.4500 459.0000 1.0000
38.4600 451.0000 1.0000
38.4700 474.0000 1.0000
38.4800 465.0000 1.0000
38.4900 472.0000 1.0000
38.5000 461.0000 1.0000
38.5100 481.0000 1.0000
38.5200 418.0000 1.0000
38.5300 484.0000 1.0000
38.5400 456.0000 1.0000
38.5500 479.0000 1.0000
38.5600 450.0000 1.0000
38.5700 433.0000 1.0000
38.5800 458.0000 1.0000
38.5900 455.0000 1.0000
38.6000 446.0000 1.0000
38.6100 438.0000 1.0000
38.6200 427.0000 1.0000
38.6300 418.0000 1.0000
38.6400 496.0000 1.0000
38.6500 470.0000 1.0000
38.6600 477.0000 1.0000
38.6700 480.0000 1.0000
38.6800 421.0000 1.0000
38.6900 435.0000 1.0000
38.7000 453.0000 1.0000
38.7100 418.0000 1.0000
38.7200 440.0000 1.0000
38.7300 414.0000 1.0000
38.7400 434.0000 1.0000
38.7500 410.0000 1.0000
38.7600 424.0000 1.0000
38.7700 435.0000 1.0000
38.7800 456.0000 1.0000
38.7900 476.0000 1.0000
38.8000 483.0000 1.0000
38.8100 468.0000 1.0000
38.8200 459.0000 1.0000
38.8300 432.0000 1.0000
38.8400 424.0000 1.0000
38.8500 452.0000 1.0000
38.8600 463.0000 1.0000
38.8700 457.0000 1.0000
38.8800 450.0000 1.0000
38.8900 460.0000 1.0000
38.9000 463.0000 1.0000
38.9100 458.0000 1.0000
38.9200 428.0000 1.0000
38.9300 416.0000 1.0000
38.9400 411.0000 1.0000
38.9500 407.0000 1.0000
38.9600 452.0000 1.0000
38.9700 456.0000 1.0000
38.9800 397.0000 1.0000
38.9900 455.0000 1.0000
39.0000 422.0000 1.0000
39.0100 424.0000 1.0000
39.0200 424.0000 1.0000
39.0300 450.0000 1.0000
39.0400 441.0000 1.0000
39.0500 449.0000 1.0000
39.0600 439.0000 1.0000
39.0700 423.0000 1.0000
39.0800 455.0000 1.0000
39.0900 440.0000 1.0000
39.1000 426.0000 1.0000
39.1100 420.0000 1.0000
39.1200 433.0000 1.0000
39.1300 409.0000 1.0000
39.1400 410.0000 1.0000
39.1500 431.0000 1.0000
39.1600 403.0000 1.0000
39.1700 447.0000 1.0000
39.1800 447.0000 1.0000
39.1900 419.0000 1.0000
39.2000 403.0000 1.0000
39.2100 417.0000 1.0000
39.2200 404.0000 1.0000
39.2300 433.0000 1.0000
39.2400 432.0000 1.0000
39.2500 426.0000 1.0000
39.2600 397.0000 1.0000
39.2700 397.0000 1.0000
39.2800 406.0000 1.0000
39.2900 418.0000 1.0000
39.3000 449.0000 1.0000
39.3100 432.0000 1.0000
39.3200 442.0000 1.0000
39.3300 458.0000 1.0000
39.3400 398.0000 1.0000
39.3500 431.0000 1.0000
39.3600 408.0000 1.0000
39.3700 366.0000 1.0000
39.3800 444.0000 1.0000
39.3900 413.0000 1.0000
39.4000 399.0000 1.0000
39.4100 412.0000 1.0000
39.4200 429.0000 1.0000
39.4300 403.0000 1.0000
39.4400 432.0000 1.0000
39.4500 391.0000 1.0000
39.4600 412.0000 1.0000
39.4700 426.0000 1.0000
39.4800 365.0000 1.0000
39.4900 399.0000 1.0000
39.5000 420.0000 1.0000
39.5100 442.0000 1.0000
39.5200 426.0000 1.0000
39.5300 411.0000 1.0000
39.5400 422.0000 1.0000
39.5500 407.0000 1.0000
39.5600 398.0000 1.0000
39.5700 432.0000 1.0000
39.5800 429.0000 1.0000
39.5900 408.0000 1.0000
39.6000 402.0000 1.0000
39.6100 412.0000 1.0000
39.6200 418.0000 1.0000
39.6300 413.0000 1.0000
39.6400 404.0000 1.0000
39.6500 414.0000 1.0000
39.6600 442.0000 1.0000
39.6700 392.0000 1.0000
39.6800 449.0000 1.0000
39.6900 417.0000 1.0000
39.7000 427.0000 1.0000
39.7100 409.0000 1.0000
39.7200 389.0000 1.0000
39.7300 388.0000 1.0000
39.7400 413.0000 1.0000
39.7500 421.0000 1.0000
39.7600 416.0000 1.0000
39.7700 411.0000 1.0000
39.7800 384.0000 1.0000
39.7900 400.0000 1.0000
39.8000 414.0000 1.0000
39.8100 424.0000 1.0000
39.8200 411.0000 1.0000
39.8300 440.0000 1.0000
39.8400 427.0000 1.0000
39.8500 423.0000 1.0000
39.8600 408.0000 1.0000
39.8700 412.0000 1.0000
39.8800 368.0000 1.0000
39.8900 420.0000 1.0000
39.9000 388.0000 1.0000
39.9100 432.0000 1.0000
39.9200 411.0000 1.0000
39.9300 400.0000 1.0000
39.9400 408.0000 1.0000
39.9500 414.0000 1.0000
39.9600 387.0000 1.0000
39.9700 432.0000 1.0000
39.9800 420.0000 1.0000
39.9900 393.0000 1.0000
40.0000 434.0000 1.0000
40.0100 448.0000 1.0000
40.0200 416.0000 1.0000
40.0300 412.0000 1.0000
40.0400 395.0000 1.0000
40.0500 416.0000 1.0000
40.0600 381.0000 1.0000
40.0700 380.0000 1.0000
40.0800 395.0000 1.0000
40.0900 389.0000 1.0000
40.1000 420.0000 1.0000
40.1100 377.0000 1.0000
40.1200 403.0000 1.0000
40.1300 420.0000 1.0000
40.1400 403.0000 1.0000
40.1500 415.0000 1.0000
40.1600 416.0000 1.0000
40.1700 397.0000 1.0000
40.1800 421.0000 1.0000
40.1900 402.0000 1.0000
40.2000 384.0000 1.0000
40.2100 424.0000 1.0000
40.2200 417.0000 1.0000
40.2300 402.0000 1.0000
40.2400 390.0000 1.0000
40.2500 379.0000 1.0000
40.2600 418.0000 1.0000
40.2700 442.0000 1.0000
40.2800 379.0000 1.0000
40.2900 428.0000 1.0000
40.3000 395.0000 1.0000
40.3100 402.0000 1.0000
40.3200 454.0000 1.0000
40.3300 429.0000 1.0000
40.3400 405.0000 1.0000
40.3500 389.0000 1.0000
40.3600 396.0000 1.0000
40.3700 420.0000 1.0000
40.3800 397.0000 1.0000
40.3900 416.0000 1.0000
40.4000 400.0000 1.0000
40.4100 449.0000 1.0000
40.4200 410.0000 1.0000
40.4300 405.0000 1.0000
40.4400 421.0000 1.0000
40.4500 444.0000 1.0000
40.4600 410.0000 1.0000
40.4700 392.0000 1.0000
40.4800 411.0000 1.0000
40.4900 387.0000 1.0000
40.5000 404.0000 1.0000
40.5100 413.0000 1.0000
40.5200 440.0000 1.0000
40.5300 418.0000 1.0000
40.5400 388.0000 1.0000
40.5500 393.0000 1.0000
40.5600 400.0000 1.0000
40.5700 418.0000 1.0000
40.5800 421.0000 1.0000
40.5900 407.0000 1.0000
40.6000 383.0000 1.0000
40.6100 406.0000 1.0000
40.6200 441.0000 1.0000
40.6300 470.0000 1.0000
40.6400 436.0000 1.0000
40.6500 430.0000 1.0000
40.6600 433.0000 1.0000
40.6700 444.0000 1.0000
40.6800 409.0000 1.0000
40.6900 433.0000 1.0000
40.7000 418.0000 1.0000
40.7100 421.0000 1.0000
40.7200 395.0000 1.0000
40.7300 455.0000 1.0000
40.7400 454.0000 1.0000
40.7500 449.0000 1.0000
40.7600 463.0000 1.0000
40.7700 448.0000 1.0000
40.7800 471.0000 1.0000
40.7900 456.0000 1.0000
40.8000 471.0000 1.0000
40.8100 470.0000 1.0000
40.8200 444.0000 1.0000
40.8300 466.0000 1.0000
40.8400 483.0000 1.0000
40.8500 474.0000 1.0000
40.8600 467.0000 1.0000
40.8700 457.0000 1.0000
40.8800 464.0000 1.0000
40.8900 459.0000 1.0000
40.9000 458.0000 1.0000
40.9100 459.0000 1.0000
40.9200 431.0000 1.0000
40.9300 455.0000 1.0000
40.9400 450.0000 1.0000
40.9500 456.0000 1.0000
40.9600 448.0000 1.0000
40.9700 446.0000 1.0000
40.9800 424.0000 1.0000
40.9900 406.0000 1.0000
41.0000 383.0000 1.0000
41.0100 414.0000 1.0000
41.0200 442.0000 1.0000
41.0300 435.0000 1.0000
41.0400 441.0000 1.0000
41.0500 422.0000 1.0000
41.0600 416.0000 1.0000
41.0700 429.0000 1.0000
41.0800 386.0000 1.0000
41.0900 406.0000 1.0000
41.1000 392.0000 1.0000
41.1100 382.0000 1.0000
41.1200 405.0000 1.0000
41.1300 420.0000 1.0000
41.1400 384.0000 1.0000
41.1500 397.0000 1.0000
41.1600 418.0000 1.0000
41.1700 400.0000 1.0000
41.1800 396.0000 1.0000
41.1900 405.0000 1.0000
41.2000 412.0000 1.0000
41.2100 404.0000 1.0000
41.2200 381.0000 1.0000
41.2300 417.0000 1.0000
41.2400 392.0000 1.0000
41.2500 401.0000 1.0000
41.2600 439.0000 1.0000
41.2700 417.0000 1.0000
41.2800 399.0000 1.0000
41.2900 388.0000 1.0000
41.3000 383.0000 1.0000
41.3100 394.0000 1.0000
41.3200 405.0000 1.0000
41.3300 408.0000 1.0000
41.3400 379.0000 1.0000
41.3500 411.0000 1.0000
41.3600 407.0000 1.0000
41.3700 406.0000 1.0000
41.3800 400.0000 1.0000
41.3900 406.0000 1.0000
41.4000 385.0000 1.0000
41.4100 420.0000 1.0000
41.4200 409.0000 1.0000
41.4300 387.0000 1.0000
41.4400 366.0000 1.0000
41.4500 367.0000 1.0000
41.4600 361.0000 1.0000
41.4700 381.0000 1.0000
41.4800 386.0000 1.0000
41.4900 413.0000 1.0000
41.5000 394.0000 1.0000
41.5100 382.0000 1.0000
41.5200 377.0000 1.0000
41.5300 387.0000 1.0000
41.5400 410.0000 1.0000
41.5500 373.0000 1.0000
41.5600 380.0000 1.0000
41.5700 408.0000 1.0000
41.5800 374.0000 1.0000
41.5900 423.0000 1.0000
41.6000 418.0000 1.0000
41.6100 395.0000 1.0000
41.6200 365.0000 1.0000
41.6300 418.0000 1.0000
41.6400 414.0000 1.0000
41.6500 394.0000 1.0000
41.6600 410.0000 1.0000
41.6700 412.0000 1.0000
41.6800 421.0000 1.0000
41.6900 394.0000 1.0000
41.7000 408.0000 1.0000
41.7100 409.0000 1.0000
41.7200 367.0000 1.0000
41.7300 377.0000 1.0000
41.7400 405.0000 1.0000
41.7500 405.0000 1.0000
41.7600 380.0000 1.0000
41.7700 421.0000 1.0000
41.7800 398.0000 1.0000
41.7900 415.0000 1.0000
41.8000 410.0000 1.0000
41.8100 400.0000 1.0000
41.8200 408.0000 1.0000
41.8300 398.0000 1.0000
41.8400 377.0000 1.0000
41.8500 381.0000 1.0000
41.8600 398.0000 1.0000
41.8700 396.0000 1.0000
41.8800 415.0000 1.0000
41.8900 417.0000 1.0000
41.9000 413.0000 1.0000
41.9100 407.0000 1.0000
41.9200 383.0000 1.0000
41.9300 358.0000 1.0000
41.9400 381.0000 1.0000
41.9500 364.0000 1.0000
41.9600 388.0000 1.0000
41.9700 389.0000 1.0000
41.9800 403.0000 1.0000
41.9900 426.0000 1.0000
42.0000 403.0000 1.0000
42.0100 389.0000 1.0000
42.0200 378.0000 1.0000
42.0300 418.0000 1.0000
42.0400 402.0000 1.0000
42.0500 377.0000 1.0000
42.0600 407.0000 1.0000
42.0700 391.0000 1.0000
42.0800 399.0000 1.0000
42.0900 417.0000 1.0000
42.1000 392.0000 1.0000
42.1100 412.0000 1.0000
42.1200 385.0000 1.0000
42.1300 399.0000 1.0000
42.1400 393.0000 1.0000
42.1500 419.0000 1.0000
42.1600 409.0000 1.0000
42.1700 406.0000 1.0000
42.1800 423.0000 1.0000
42.1900 404.0000 1.0000
42.2000 372.0000 1.0000
42.2100 359.0000 1.0000
42.2200 404.0000 1.0000
42.2300 390.0000 1.0000
42.2400 373.0000 1.0000
42.2500 380.0000 1.0000
42.2600 393.0000 1.0000
42.2700 364.0000 1.0000
42.2800 408.0000 1.0000
42.2900 408.0000 1.0000
42.3000 428.0000 1.0000
42.3100 366.0000 1.0000
42.3200 416.0000 1.0000
42.3300 411.0000 1.0000
42.3400 416.0000 1.0000
42.3500 399.0000 1.0000
42.3600 394.0000 1.0000
42.3700 394.0000 1.0000
42.3800 373.0000 1.0000
42.3900 421.0000 1.0000
42.4000 408.0000 1.0000
42.4100 379.0000 1.0000
42.4200 411.0000 1.0000
42.4300 418.0000 1.0000
42.4400 393.0000 1.0000
42.4500 399.0000 1.0000
42.4600 426.0000 1.0000
42.4700 416.0000 1.0000
42.4800 384.0000 1.0000
42.4900 413.0000 1.0000
42.5000 389.0000 1.0000
42.5100 398.0000 1.0000
42.5200 410.0000 1.0000
42.5300 398.0000 1.0000
42.5400 406.0000 1.0000
42.5500 379.0000 1.0000
42.5600 393.0000 1.0000
42.5700 407.0000 1.0000
42.5800 402.0000 1.0000
42.5900 416.0000 1.0000
42.6000 396.0000 1.0000
42.6100 365.0000 1.0000
42.6200 388.0000 1.0000
42.6300 352.0000 1.0000
42.6400 412.0000 1.0000
42.6500 375.0000 1.0000
42.6600 396.0000 1.0000
42.6700 376.0000 1.0000
42.6800 389.0000 1.0000
42.6900 394.0000 1.0000
42.7000 365.0000 1.0000
42.7100 369.0000 1.0000
42.7200 394.0000 1.0000
42.7300 389.0000 1.0000
42.7400 370.0000 1.0000
42.7500 339.0000 1.0000
42.7600 392.0000 1.0000
42.7700 386.0000 1.0000
42.7800 416.0000 1.0000
42.7900 368.0000 1.0000
42.8000 397.0000 1.0000
42.8100 364.0000 1.0000
42.8200 398.0000 1.0000
42.8300 399.0000 1.0000
42.8400 391.0000 1.0000
42.8500 393.0000 1.0000
42.8600 375.0000 1.0000
42.8700 368.0000 1.0000
42.8800 371.0000 1.0000
42.8900 360.0000 1.0000
42.9000 390.0000 1.0000
42.9100 383.0000 1.0000
42.9200 393.0000 1.0000
42.9300 374.0000 1.0000
42.9400 381.0000 1.0000
42.9500 370.0000 1.0000
42.9600 361.0000 1.0000
42.9700 377.0000 1.0000
42.9800 363.0000 1.0000
42.9900 336.0000 1.0000
43.0000 366.0000 1.0000
43.0100 376.0000 1.0000
43.0200 363.0000 1.0000
43.0300 373.0000 1.0000
43.0400 377.0000 1.0000
43.0500 381.0000 1.0000
43.0600 372.0000 1.0000
43.0700 376.0000 1.0000
43.0800 374.0000 1.0000
43.0900 395.0000 1.0000
43.1000 325.0000 1.0000
43.1100 407.0000 1.0000
43.1200 376.0000 1.0000
43.1300 388.0000 1.0000
43.1400 397.0000 1.0000
43.1500 380.0000 1.0000
43.1600 391.0000 1.0000
43.1700 364.0000 1.0000
43.1800 352.0000 1.0000
43.1900 353.0000 1.0000
43.2000 374.0000 1.0000
43.2100 367.0000 1.0000
43.2200 374.0000 1.0000
43.2300 384.0000 1.0000
43.2400 372.0000 1.0000
43.2500 378.0000 1.0000
43.2600 403.0000 1.0000
43.2700 380.0000 1.0000
43.2800 366.0000 1.0000
43.2900 356.0000 1.0000
43.3000 381.0000 1.0000
43.3100 358.0000 1.0000
43.3200 324.0000 1.0000
43.3300 356.0000 1.0000
43.3400 393.0000 1.0000
43.3500 389.0000 1.0000
43.3600 376.0000 1.0000
43.3700 349.0000 1.0000
43.3800 395.0000 1.0000
43.3900 371.0000 1.0000
43.4000 389.0000 1.0000
43.4100 366.0000 1.0000
43.4200 379.0000 1.0000
43.4300 370.0000 1.0000
43.4400 382.0000 1.0000
43.4500 376.0000 1.0000
43.4600 377.0000 1.0000
43.4700 407.0000 1.0000
43.4800 408.0000 1.0000
43.4900 391.0000 1.0000
43.5000 412.0000 1.0000
43.5100 394.0000 1.0000
43.5200 397.0000 1.0000
43.5300 370.0000 1.0000
43.5400 400.0000 1.0000
43.5500 385.0000 1.0000
43.5600 365.0000 1.0000
43.5700 360.0000 1.0000
43.5800 390.0000 1.0000
43.5900 405.0000 1.0000
43.6000 355.0000 1.0000
43.6100 338.0000 1.0000
43.6200 399.0000 1.0000
43.6300 379.0000 1.0000
43.6400 374.0000 1.0000
43.6500 357.0000 1.0000
43.6600 405.0000 1.0000
43.6700 363.0000 1.0000
43.6800 362.0000 1.0000
43.6900 363.0000 1.0000
43.7000 350.0000 1.0000
43.7100 391.0000 1.0000
43.7200 369.0000 1.0000
43.7300 367.0000 1.0000
43.7400 375.0000 1.0000
43.7500 381.0000 1.0000
43.7600 391.0000 1.0000
43.7700 375.0000 1.0000
43.7800 381.0000 1.0000
43.7900 374.0000 1.0000
43.8000 389.0000 1.0000
43.8100 369.0000 1.0000
43.8200 406.0000 1.0000
43.8300 383.0000 1.0000
43.8400 387.0000 1.0000
43.8500 367.0000 1.0000
43.8600 383.0000 1.0000
43.8700 396.0000 1.0000
43.8800 355.0000 1.0000
43.8900 359.0000 1.0000
43.9000 369.0000 1.0000
43.9100 390.0000 1.0000
43.9200 371.0000 1.0000
43.9300 393.0000 1.0000
43.9400 373.0000 1.0000
43.9500 376.0000 1.0000
43.9600 351.0000 1.0000
43.9700 405.0000 1.0000
43.9800 356.0000 1.0000
43.9900 384.0000 1.0000
44.0000 389.0000 1.0000
44.0100 375.0000 1.0000
44.0200 360.0000 1.0000
44.0300 367.0000 1.0000
44.0400 382.0000 1.0000
44.0500 388.0000 1.0000
44.0600 398.0000 1.0000
44.0700 382.0000 1.0000
44.0800 375.0000 1.0000
44.0900 389.0000 1.0000
44.1000 361.0000 1.0000
44.1100 349.0000 1.0000
44.1200 384.0000 1.0000
44.1300 371.0000 1.0000
44.1400 393.0000 1.0000
44.1500 379.0000 1.0000
44.1600 378.0000 1.0000
44.1700 380.0000 1.0000
44.1800 375.0000 1.0000
44.1900 377.0000 1.0000
44.2000 359.0000 1.0000
44.2100 370.0000 1.0000
44.2200 367.0000 1.0000
44.2300 357.0000 1.0000
44.2400 347.0000 1.0000
44.2500 364.0000 1.0000
44.2600 356.0000 1.0000
44.2700 390.0000 1.0000
44.2800 344.0000 1.0000
44.2900 373.0000 1.0000
44.3000 343.0000 1.0000
44.3100 380.0000 1.0000
44.3200 371.0000 1.0000
44.3300 366.0000 1.0000
44.3400 346.0000 1.0000
44.3500 375.0000 1.0000
44.3600 377.0000 1.0000
44.3700 363.0000 1.0000
44.3800 380.0000 1.0000
44.3900 364.0000 1.0000
44.4000 352.0000 1.0000
44.4100 373.0000 1.0000
44.4200 355.0000 1.0000
44.4300 374.0000 1.0000
44.4400 373.0000 1.0000
44.4500 359.0000 1.0000
44.4600 358.0000 1.0000
44.4700 357.0000 1.0000
44.4800 349.0000 1.0000
44.4900 340.0000 1.0000
44.5000 370.0000 1.0000
44.5100 379.0000 1.0000
44.5200 355.0000 1.0000
44.5300 365.0000 1.0000
44.5400 348.0000 1.0000
44.5500 357.0000 1.0000
44.5600 349.0000 1.0000
44.5700 360.0000 1.0000
44.5800 343.0000 1.0000
44.5900 350.0000 1.0000
44.6000 380.0000 1.0000
44.6100 356.0000 1.0000
44.6200 378.0000 1.0000
44.6300 347.0000 1.0000
44.6400 366.0000 1.0000
44.6500 342.0000 1.0000
44.6600 368.0000 1.0000
44.6700 350.0000 1.0000
44.6800 372.0000 1.0000
44.6900 344.0000 1.0000
44.7000 375.0000 1.0000
44.7100 340.0000 1.0000
44.7200 356.0000 1.0000
44.7300 357.0000 1.0000
44.7400 379.0000 1.0000
44.7500 392.0000 1.0000
44.7600 405.0000 1.0000
44.7700 344.0000 1.0000
44.7800 347.0000 1.0000
44.7900 344.0000 1.0000
44.8000 344.0000 1.0000
44.8100 355.0000 1.0000
44.8200 349.0000 1.0000
44.8300 340.0000 1.0000
44.8400 372.0000 1.0000
44.8500 373.0000 1.0000
44.8600 338.0000 1.0000
44.8700 326.0000 1.0000
44.8800 369.0000 1.0000
44.8900 369.0000 1.0000
44.9000 376.0000 1.0000
44.9100 346.0000 1.0000
44.9200 358.0000 1.0000
44.9300 383.0000 1.0000
44.9400 381.0000 1.0000
44.9500 366.0000 1.0000
44.9600 375.0000 1.0000
44.9700 364.0000 1.0000
44.9800 354.0000 1.0000
44.9900 342.0000 1.0000
45.0000 364.0000 1.0000
45.0100 365.0000 1.0000
45.0200 346.0000 1.0000
45.0300 367.0000 1.0000
45.0400 379.0000 1.0000
45.0500 354.0000 1.0000
45.0600 346.0000 1.0000
45.0700 349.0000 1.0000
45.0800 358.0000 1.0000
45.0900 360.0000 1.0000
45.1000 392.0000 1.0000
45.1100 369.0000 1.0000
45.1200 351.0000 1.0000
45.1300 371.0000 1.0000
45.1400 318.0000 1.0000
45.1500 362.0000 1.0000
45.1600 338.0000 1.0000
45.1700 353.0000 1.0000
45.1800 368.0000 1.0000
45.1900 387.0000 1.0000
45.2000 395.0000 1.0000
45.2100 357.0000 1.0000
45.2200 362.0000 1.0000
45.2300 401.0000 1.0000
45.2400 399.0000 1.0000
45.2500 383.0000 1.0000
45.2600 341.0000 1.0000
45.2700 331.0000 1.0000
45.2800 378.0000 1.0000
45.2900 360.0000 1.0000
45.3000 352.0000 1.0000
45.3100 342.0000 1.0000
45.3200 353.0000 1.0000
45.3300 353.0000 1.0000
45.3400 355.0000 1.0000
45.3500 342.0000 1.0000
45.3600 341.0000 1.0000
45.3700 352.0000 1.0000
45.3800 362.0000 1.0000
45.3900 365.0000 1.0000
45.4000 393.0000 1.0000
45.4100 360.0000 1.0000
45.4200 361.0000 1.0000
45.4300 351.0000 1.0000
45.4400 359.0000 1.0000
45.4500 365.0000 1.0000
45.4600 341.0000 1.0000
45.4700 360.0000 1.0000
45.4800 332.0000 1.0000
45.4900 342.0000 1.0000
45.5000 319.0000 1.0000
45.5100 347.0000 1.0000
45.5200 335.0000 1.0000
45.5300 375.0000 1.0000
45.5400 359.0000 1.0000
45.5500 334.0000 1.0000
45.5600 366.0000 1.0000
45.5700 387.0000 1.0000
45.5800 369.0000 1.0000
45.5900 365.0000 1.0000
45.6000 342.0000 1.0000
45.6100 369.0000 1.0000
45.6200 359.0000 1.0000
45.6300 374.0000 1.0000
45.6400 359.0000 1.0000
45.6500 367.0000 1.0000
45.6600 374.0000 1.0000
45.6700 358.0000 1.0000
45.6800 350.0000 1.0000
45.6900 353.0000 1.0000
45.7000 328.0000 1.0000
45.7100 357.0000 1.0000
45.7200 389.0000 1.0000
45.7300 365.0000 1.0000
45.7400 339.0000 1.0000
45.7500 384.0000 1.0000
45.7600 359.0000 1.0000
45.7700 337.0000 1.0000
45.7800 367.0000 1.0000
45.7900 338.0000 1.0000
45.8000 336.0000 1.0000
45.8100 352.0000 1.0000
45.8200 400.0000 1.0000
45.8300 362.0000 1.0000
45.8400 345.0000 1.0000
45.8500 334.0000 1.0000
45.8600 343.0000 1.0000
45.8700 358.0000 1.0000
45.8800 371.0000 1.0000
45.8900 333.0000 1.0000
45.9000 349.0000 1.0000
45.9100 349.0000 1.0000
45.9200 360.0000 1.0000
45.9300 347.0000 1.0000
45.9400 330.0000 1.0000
45.9500 327.0000 1.0000
45.9600 345.0000 1.0000
45.9700 365.0000 1.0000
45.9800 339.0000 1.0000
45.9900 335.0000 1.0000
46.0000 332.0000 1.0000
46.0100 338.0000 1.0000
46.0200 344.0000 1.0000
46.0300 347.0000 1.0000
46.0400 336.0000 1.0000
46.0500 368.0000 1.0000
46.0600 346.0000 1.0000
46.0700 363.0000 1.0000
46.0800 334.0000 1.0000
46.0900 355.0000 1.0000
46.1000 340.0000 1.0000
46.1100 345.0000 1.0000
46.1200 336.0000 1.0000
46.1300 355.0000 1.0000
46.1400 369.0000 1.0000
46.1500 367.0000 1.0000
46.1600 366.0000 1.0000
46.1700 356.0000 1.0000
46.1800 337.0000 1.0000
46.1900 354.0000 1.0000
46.2000 335.0000 1.0000
46.2100 346.0000 1.0000
46.2200 331.0000 1.0000
46.2300 324.0000 1.0000
46.2400 338.0000 1.0000
46.2500 369.0000 1.0000
46.2600 364.0000 1.0000
46.2700 380.0000 1.0000
46.2800 368.0000 1.0000
46.2900 338.0000 1.0000
46.3000 331.0000 1.0000
46.3100 353.0000 1.0000
46.3200 358.0000 1.0000
46.3300 345.0000 1.0000
46.3400 324.0000 1.0000
46.3500 363.0000 1.0000
46.3600 395.0000 1.0000
46.3700 346.0000 1.0000
46.3800 381.0000 1.0000
46.3900 342.0000 1.0000
46.4000 351.0000 1.0000
46.4100 366.0000 1.0000
46.4200 332.0000 1.0000
46.4300 338.0000 1.0000
46.4400 354.0000 1.0000
46.4500 338.0000 1.0000
46.4600 329.0000 1.0000
46.4700 340.0000 1.0000
46.4800 349.0000 1.0000
46.4900 355.0000 1.0000
46.5000 351.0000 1.0000
46.5100 341.0000 1.0000
46.5200 372.0000 1.0000
46.5300 356.0000 1.0000
46.5400 338.0000 1.0000
46.5500 378.0000 1.0000
46.5600 343.0000 1.0000
46.5700 333.0000 1.0000
46.5800 332.0000 1.0000
46.5900 333.0000 1.0000
46.6000 358.0000 1.0000
46.6100 368.0000 1.0000
46.6200 347.0000 1.0000
46.6300 334.0000 1.0000
46.6400 358.0000 1.0000
46.6500 337.0000 1.0000
46.6600 315.0000 1.0000
46.6700 317.0000 1.0000
46.6800 344.0000 1.0000
46.6900 343.0000 1.0000
46.7000 390.0000 1.0000
46.7100 353.0000 1.0000
46.7200 357.0000 1.0000
46.7300 338.0000 1.0000
46.7400 333.0000 1.0000
46.7500 342.0000 1.0000
46.7600 331.0000 1.0000
46.7700 354.0000 1.0000
46.7800 352.0000 1.0000
46.7900 318.0000 1.0000
46.8000 361.0000 1.0000
46.8100 346.0000 1.0000
46.8200 343.0000 1.0000
46.8300 368.0000 1.0000
46.8400 332.0000 1.0000
46.8500 346.0000 1.0000
46.8600 337.0000 1.0000
46.8700 354.0000 1.0000
46.8800 335.0000 1.0000
46.8900 338.0000 1.0000
46.9000 306.0000 1.0000
46.9100 326.0000 1.0000
46.9200 338.0000 1.0000
46.9300 345.0000 1.0000
46.9400 352.0000 1.0000
46.9500 329.0000 1.0000
46.9600 383.0000 1.0000
46.9700 348.0000 1.0000
46.9800 338.0000 1.0000
46.9900 346.0000 1.0000
47.0000 337.0000 1.0000
47.0100 358.0000 1.0000
47.0200 335.0000 1.0000
47.0300 357.0000 1.0000
47.0400 338.0000 1.0000
47.0500 317.0000 1.0000
47.0600 371.0000 1.0000
47.0700 334.0000 1.0000
47.0800 320.0000 1.0000
47.0900 340.0000 1.0000
47.1000 379.0000 1.0000
47.1100 354.0000 1.0000
47.1200 326.0000 1.0000
47.1300 347.0000 1.0000
47.1400 355.0000 1.0000
47.1500 331.0000 1.0000
47.1600 329.0000 1.0000
47.1700 307.0000 1.0000
47.1800 323.0000 1.0000
47.1900 332.0000 1.0000
47.2000 313.0000 1.0000
47.2100 324.0000 1.0000
47.2200 329.0000 1.0000
47.2300 346.0000 1.0000
47.2400 360.0000 1.0000
47.2500 340.0000 1.0000
47.2600 357.0000 1.0000
47.2700 342.0000 1.0000
47.2800 341.0000 1.0000
47.2900 330.0000 1.0000
47.3000 328.0000 1.0000
47.3100 355.0000 1.0000
47.3200 332.0000 1.0000
47.3300 345.0000 1.0000
47.3400 351.0000 1.0000
47.3500 346.0000 1.0000
47.3600 347.0000 1.0000
47.3700 317.0000 1.0000
47.3800 345.0000 1.0000
47.3900 340.0000 1.0000
47.4000 350.0000 1.0000
47.4100 344.0000 1.0000
47.4200 353.0000 1.0000
47.4300 338.0000 1.0000
47.4400 337.0000 1.0000
47.4500 373.0000 1.0000
47.4600 347.0000 1.0000
47.4700 328.0000 1.0000
47.4800 333.0000 1.0000
47.4900 334.0000 1.0000
47.5000 354.0000 1.0000
47.5100 373.0000 1.0000
47.5200 337.0000 1.0000
47.5300 314.0000 1.0000
47.5400 317.0000 1.0000
47.5500 348.0000 1.0000
47.5600 353.0000 1.0000
47.5700 327.0000 1.0000
47.5800 317.0000 1.0000
47.5900 351.0000 1.0000
47.6000 345.0000 1.0000
47.6100 320.0000 1.0000
47.6200 329.0000 1.0000
47.6300 336.0000 1.0000
47.6400 324.0000 1.0000
47.6500 327.0000 1.0000
47.6600 326.0000 1.0000
47.6700 321.0000 1.0000
47.6800 337.0000 1.0000
47.6900 349.0000 1.0000
47.7000 326.0000 1.0000
47.7100 338.0000 1.0000
47.7200 340.0000 1.0000
47.7300 380.0000 1.0000
47.7400 367.0000 1.0000
47.7500 344.0000 1.0000
47.7600 354.0000 1.0000
47.7700 338.0000 1.0000
47.7800 358.0000 1.0000
47.7900 340.0000 1.0000
47.8000 335.0000 1.0000
47.8100 355.0000 1.0000
47.8200 340.0000 1.0000
47.8300 339.0000 1.0000
47.8400 357.0000 1.0000
47.8500 337.0000 1.0000
47.8600 346.0000 1.0000
47.8700 331.0000 1.0000
47.8800 312.0000 1.0000
47.8900 309.0000 1.0000
47.9000 312.0000 1.0000
47.9100 291.0000 1.0000
47.9200 321.0000 1.0000
47.9300 327.0000 1.0000
47.9400 333.0000 1.0000
47.9500 326.0000 1.0000
47.9600 346.0000 1.0000
47.9700 337.0000 1.0000
47.9800 326.0000 1.0000
47.9900 325.0000 1.0000
48.0000 324.0000 1.0000
48.0100 356.0000 1.0000
48.0200 336.0000 1.0000
48.0300 336.0000 1.0000
48.0400 340.0000 1.0000
48.0500 321.0000 1.0000
48.0600 306.0000 1.0000
48.0700 347.0000 1.0000
48.0800 316.0000 1.0000
48.0900 310.0000 1.0000
48.1000 325.0000 1.0000
48.1100 331.0000 1.0000
48.1200 338.0000 1.0000
48.1300 330.0000 1.0000
48.1400 312.0000 1.0000
48.1500 365.0000 1.0000
48.1600 336.0000 1.0000
48.1700 311.0000 1.0000
48.1800 316.0000 1.0000
48.1900 324.0000 1.0000
48.2000 351.0000 1.0000
48.2100 336.0000 1.0000
48.2200 341.0000 1.0000
48.2300 362.0000 1.0000
48.2400 343.0000 1.0000
48.2500 374.0000 1.0000
48.2600 300.0000 1.0000
48.2700 319.0000 1.0000
48.2800 309.0000 1.0000
48.2900 332.0000 1.0000
48.3000 309.0000 1.0000
48.3100 333.0000 1.0000
48.3200 348.0000 1.0000
48.3300 348.0000 1.0000
48.3400 310.0000 1.0000
48.3500 327.0000 1.0000
48.3600 311.0000 1.0000
48.3700 307.0000 1.0000
48.3800 307.0000 1.0000
48.3900 316.0000 1.0000
48.4000 314.0000 1.0000
48.4100 313.0000 1.0000
48.4200 304.0000 1.0000
48.4300 344.0000 1.0000
48.4400 328.0000 1.0000
48.4500 332.0000 1.0000
48.4600 333.0000 1.0000
48.4700 308.0000 1.0000
48.4800 336.0000 1.0000
48.4900 316.0000 1.0000
48.5000 327.0000 1.0000
48.5100 348.0000 1.0000
48.5200 354.0000 1.0000
48.5300 352.0000 1.0000
48.5400 354.0000 1.0000
48.5500 324.0000 1.0000
48.5600 319.0000 1.0000
48.5700 323.0000 1.0000
48.5800 324.0000 1.0000
48.5900 295.0000 1.0000
48.6000 297.0000 1.0000
48.6100 337.0000 1.0000
48.6200 325.0000 1.0000
48.6300 341.0000 1.0000
48.6400 352.0000 1.0000
48.6500 319.0000 1.0000
48.6600 348.0000 1.0000
48.6700 315.0000 1.0000
48.6800 316.0000 1.0000
48.6900 345.0000 1.0000
48.7000 336.0000 1.0000
48.7100 298.0000 1.0000
48.7200 309.0000 1.0000
48.7300 370.0000 1.0000
48.7400 334.0000 1.0000
48.7500 330.0000 1.0000
48.7600 312.0000 1.0000
48.7700 323.0000 1.0000
48.7800 328.0000 1.0000
48.7900 344.0000 1.0000
48.8000 345.0000 1.0000
48.8100 333.0000 1.0000
48.8200 322.0000 1.0000
48.8300 319.0000 1.0000
48.8400 317.0000 1.0000
48.8500 320.0000 1.0000
48.8600 342.0000 1.0000
48.8700 344.0000 1.0000
48.8800 339.0000 1.0000
48.8900 335.0000 1.0000
48.9000 367.0000 1.0000
48.9100 323.0000 1.0000
48.9200 314.0000 1.0000
48.9300 312.0000 1.0000
48.9400 329.0000 1.0000
48.9500 337.0000 1.0000
48.9600 346.0000 1.0000
48.9700 306.0000 1.0000
48.9800 323.0000 1.0000
48.9900 337.0000 1.0000
49.0000 316.0000 1.0000
49.0100 391.0000 1.0000
49.0200 341.0000 1.0000
49.0300 359.0000 1.0000
49.0400 353.0000 1.0000
49.0500 359.0000 1.0000
49.0600 344.0000 1.0000
49.0700 336.0000 1.0000
49.0800 349.0000 1.0000
49.0900 339.0000 1.0000
49.1000 328.0000 1.0000
49.1100 348.0000 1.0000
49.1200 329.0000 1.0000
49.1300 361.0000 1.0000
49.1400 338.0000 1.0000
49.1500 357.0000 1.0000
49.1600 318.0000 1.0000
49.1700 337.0000 1.0000
49.1800 348.0000 1.0000
49.1900 349.0000 1.0000
49.2000 357.0000 1.0000
49.2100 369.0000 1.0000
49.2200 353.0000 1.0000
49.2300 372.0000 1.0000
49.2400 373.0000 1.0000
49.2500 343.0000 1.0000
49.2600 359.0000 1.0000
49.2700 403.0000 1.0000
49.2800 350.0000 1.0000
49.2900 365.0000 1.0000
49.3000 339.0000 1.0000
49.3100 331.0000 1.0000
49.3200 358.0000 1.0000
49.3300 359.0000 1.0000
49.3400 355.0000 1.0000
49.3500 382.0000 1.0000
49.3600 385.0000 1.0000
49.3700 380.0000 1.0000
49.3800 387.0000 1.0000
49.3900 391.0000 1.0000
49.4000 390.0000 1.0000
49.4100 392.0000 1.0000
49.4200 419.0000 1.0000
49.4300 373.0000 1.0000
49.4400 396.0000 1.0000
49.4500 414.0000 1.0000
49.4600 395.0000 1.0000
49.4700 427.0000 1.0000
49.4800 397.0000 1.0000
49.4900 394.0000 1.0000
49.5000 399.0000 1.0000
49.5100 404.0000 1.0000
49.5200 383.0000 1.0000
49.5300 388.0000 1.0000
49.5400 376.0000 1.0000
49.5500 394.0000 1.0000
49.5600 368.0000 1.0000
49.5700 375.0000 1.0000
49.5800 405.0000 1.0000
49.5900 396.0000 1.0000
49.6000 368.0000 1.0000
49.6100 373.0000 1.0000
49.6200 347.0000 1.0000
49.6300 349.0000 1.0000
49.6400 344.0000 1.0000
49.6500 329.0000 1.0000
49.6600 366.0000 1.0000
49.6700 348.0000 1.0000
49.6800 361.0000 1.0000
49.6900 359.0000 1.0000
49.7000 370.0000 1.0000
49.7100 356.0000 1.0000
49.7200 326.0000 1.0000
49.7300 345.0000 1.0000
49.7400 350.0000 1.0000
49.7500 341.0000 1.0000
49.7600 343.0000 1.0000
49.7700 342.0000 1.0000
49.7800 335.0000 1.0000
49.7900 319.0000 1.0000
49.8000 331.0000 1.0000
49.8100 317.0000 1.0000
49.8200 327.0000 1.0000
49.8300 334.0000 1.0000
49.8400 301.0000 1.0000
49.8500 318.0000 1.0000
49.8600 323.0000 1.0000
49.8700 335.0000 1.0000
49.8800 287.0000 1.0000
49.8900 344.0000 1.0000
49.9000 350.0000 1.0000
49.9100 337.0000 1.0000
49.9200 341.0000 1.0000
49.9300 318.0000 1.0000
49.9400 316.0000 1.0000
49.9500 333.0000 1.0000
49.9600 316.0000 1.0000
49.9700 327.0000 1.0000
49.9800 327.0000 1.0000
49.9900 315.0000 1.0000
50.0000 334.0000 1.0000
50.0100 315.0000 1.0000
50.0200 338.0000 1.0000
50.0300 303.0000 1.0000
50.0400 313.0000 1.0000
50.0500 342.0000 1.0000
50.0600 330.0000 1.0000
50.0700 328.0000 1.0000
50.0800 347.0000 1.0000
50.0900 324.0000 1.0000
50.1000 339.0000 1.0000
50.1100 315.0000 1.0000
50.1200 314.0000 1.0000
50.1300 314.0000 1.0000
50.1400 318.0000 1.0000
50.1500 339.0000 1.0000
50.1600 316.0000 1.0000
50.1700 319.0000 1.0000
50.1800 327.0000 1.0000
50.1900 341.0000 1.0000
50.2000 337.0000 1.0000
50.2100 304.0000 1.0000
50.2200 330.0000 1.0000
50.2300 331.0000 1.0000
50.2400 322.0000 1.0000
50.2500 319.0000 1.0000
50.2600 329.0000 1.0000
50.2700 315.0000 1.0000
50.2800 317.0000 1.0000
50.2900 317.0000 1.0000
50.3000 321.0000 1.0000
50.3100 321.0000 1.0000
50.3200 321.0000 1.0000
50.3300 306.0000 1.0000
50.3400 326.0000 1.0000
50.3500 332.0000 1.0000
50.3600 309.0000 1.0000
50.3700 358.0000 1.0000
50.3800 355.0000 1.0000
50.3900 328.0000 1.0000
50.4000 317.0000 1.0000
50.4100 323.0000 1.0000
50.4200 304.0000 1.0000
50.4300 285.0000 1.0000
50.4400 319.0000 1.0000
50.4500 325.0000 1.0000
50.4600 310.0000 1.0000
50.4700 315.0000 1.0000
50.4800 307.0000 1.0000
50.4900 313.0000 1.0000
50.5000 357.0000 1.0000
50.5100 351.0000 1.0000
50.5200 356.0000 1.0000
50.5300 315.0000 1.0000
50.5400 317.0000 1.0000
50.5500 324.0000 1.0000
50.5600 338.0000 1.0000
50.5700 319.0000 1.0000
50.5800 316.0000 1.0000
50.5900 318.0000 1.0000
50.6000 309.0000 1.0000
50.6100 326.0000 1.0000
50.6200 345.0000 1.0000
50.6300 335.0000 1.0000
50.6400 323.0000 1.0000
50.6500 314.0000 1.0000
50.6600 316.0000 1.0000
50.6700 328.0000 1.0000
50.6800 346.0000 1.0000
50.6900 333.0000 1.0000
50.7000 324.0000 1.0000
50.7100 329.0000 1.0000
50.7200 348.0000 1.0000
50.7300 346.0000 1.0000
50.7400 322.0000 1.0000
50.7500 356.0000 1.0000
50.7600 338.0000 1.0000
50.7700 326.0000 1.0000
50.7800 334.0000 1.0000
50.7900 356.0000 1.0000
50.8000 308.0000 1.0000
50.8100 325.0000 1.0000
50.8200 318.0000 1.0000
50.8300 345.0000 1.0000
50.8400 356.0000 1.0000
50.8500 345.0000 1.0000
50.8600 344.0000 1.0000
50.8700 336.0000 1.0000
50.8800 335.0000 1.0000
50.8900 327.0000 1.0000
50.9000 328.0000 1.0000
50.9100 315.0000 1.0000
50.9200 331.0000 1.0000
50.9300 335.0000 1.0000
50.9400 352.0000 1.0000
50.9500 330.0000 1.0000
50.9600 328.0000 1.0000
50.9700 332.0000 1.0000
50.9800 366.0000 1.0000
50.9900 353.0000 1.0000
51.0000 370.0000 1.0000
51.0100 395.0000 1.0000
51.0200 355.0000 1.0000
51.0300 312.0000 1.0000
51.0400 343.0000 1.0000
51.0500 361.0000 1.0000
51.0600 339.0000 1.0000
51.0700 348.0000 1.0000
51.0800 364.0000 1.0000
51.0900 337.0000 1.0000
51.1000 352.0000 1.0000
51.1100 347.0000 1.0000
51.1200 363.0000 1.0000
51.1300 368.0000 1.0000
51.1400 371.0000 1.0000
51.1500 370.0000 1.0000
51.1600 397.0000 1.0000
51.1700 395.0000 1.0000
51.1800 398.0000 1.0000
51.1900 396.0000 1.0000
51.2000 411.0000 1.0000
51.2100 378.0000 1.0000
51.2200 410.0000 1.0000
51.2300 433.0000 1.0000
51.2400 418.0000 1.0000
51.2500 432.0000 1.0000
51.2600 435.0000 1.0000
51.2700 462.0000 1.0000
51.2800 498.0000 1.0000
51.2900 441.0000 1.0000
51.3000 487.0000 1.0000
51.3100 508.0000 1.0000
51.3200 505.0000 1.0000
51.3300 529.0000 1.0000
51.3400 577.0000 1.0000
51.3500 590.0000 1.0000
51.3600 590.0000 1.0000
51.3700 606.0000 1.0000
51.3800 656.0000 1.0000
51.3900 719.0000 1.0000
51.4000 727.0000 1.0000
51.4100 790.0000 1.0000
51.4200 809.0000 1.0000
51.4300 848.0000 1.0000
51.4400 870.0000 1.0000
51.4500 878.0000 1.0000
51.4600 917.0000 1.0000
51.4700 931.0000 1.0000
51.4800 962.0000 1.0000
51.4900 931.0000 1.0000
51.5000 954.0000 1.0000
51.5100 1004.0000 1.0000
51.5200 936.0000 1.0000
51.5300 946.0000 1.0000
51.5400 996.0000 1.0000
51.5500 960.0000 1.0000
51.5600 883.0000 1.0000
51.5700 838.0000 1.0000
51.5800 850.0000 1.0000
51.5900 837.0000 1.0000
51.6000 806.0000 1.0000
51.6100 839.0000 1.0000
51.6200 804.0000 1.0000
51.6300 775.0000 1.0000
51.6400 765.0000 1.0000
51.6500 685.0000 1.0000
51.6600 665.0000 1.0000
51.6700 674.0000 1.0000
51.6800 642.0000 1.0000
51.6900 664.0000 1.0000
51.7000 591.0000 1.0000
51.7100 544.0000 1.0000
51.7200 528.0000 1.0000
51.7300 520.0000 1.0000
51.7400 549.0000 1.0000
51.7500 500.0000 1.0000
51.7600 460.0000 1.0000
51.7700 478.0000 1.0000
51.7800 469.0000 1.0000
51.7900 432.0000 1.0000
51.8000 446.0000 1.0000
51.8100 462.0000 1.0000
51.8200 441.0000 1.0000
51.8300 412.0000 1.0000
51.8400 429.0000 1.0000
51.8500 418.0000 1.0000
51.8600 430.0000 1.0000
51.8700 408.0000 1.0000
51.8800 393.0000 1.0000
51.8900 365.0000 1.0000
51.9000 375.0000 1.0000
51.9100 406.0000 1.0000
51.9200 367.0000 1.0000
51.9300 389.0000 1.0000
51.9400 357.0000 1.0000
51.9500 379.0000 1.0000
51.9600 361.0000 1.0000
51.9700 381.0000 1.0000
51.9800 389.0000 1.0000
51.9900 366.0000 1.0000
52.0000 380.0000 1.0000
52.0100 355.0000 1.0000
52.0200 363.0000 1.0000
52.0300 339.0000 1.0000
52.0400 370.0000 1.0000
52.0500 363.0000 1.0000
52.0600 359.0000 1.0000
52.0700 345.0000 1.0000
52.0800 355.0000 1.0000
52.0900 324.0000 1.0000
52.1000 342.0000 1.0000
52.1100 353.0000 1.0000
52.1200 350.0000 1.0000
52.1300 357.0000 1.0000
52.1400 333.0000 1.0000
52.1500 328.0000 1.0000
52.1600 350.0000 1.0000
52.1700 337.0000 1.0000
52.1800 363.0000 1.0000
52.1900 364.0000 1.0000
52.2000 347.0000 1.0000
52.2100 353.0000 1.0000
52.2200 337.0000 1.0000
52.2300 324.0000 1.0000
52.2400 322.0000 1.0000
52.2500 313.0000 1.0000
52.2600 336.0000 1.0000
52.2700 345.0000 1.0000
52.2800 321.0000 1.0000
52.2900 315.0000 1.0000
52.3000 334.0000 1.0000
52.3100 337.0000 1.0000
52.3200 330.0000 1.0000
52.3300 332.0000 1.0000
52.3400 334.0000 1.0000
52.3500 307.0000 1.0000
52.3600 350.0000 1.0000
52.3700 339.0000 1.0000
52.3800 348.0000 1.0000
52.3900 318.0000 1.0000
52.4000 326.0000 1.0000
52.4100 322.0000 1.0000
52.4200 325.0000 1.0000
52.4300 339.0000 1.0000
52.4400 324.0000 1.0000
52.4500 324.0000 1.0000
52.4600 326.0000 1.0000
52.4700 303.0000 1.0000
52.4800 301.0000 1.0000
52.4900 340.0000 1.0000
52.5000 366.0000 1.0000
52.5100 338.0000 1.0000
52.5200 310.0000 1.0000
52.5300 299.0000 1.0000
52.5400 302.0000 1.0000
52.5500 301.0000 1.0000
52.5600 317.0000 1.0000
52.5700 312.0000 1.0000
52.5800 320.0000 1.0000
52.5900 328.0000 1.0000
52.6000 305.0000 1.0000
52.6100 310.0000 1.0000
52.6200 321.0000 1.0000
52.6300 313.0000 1.0000
52.6400 312.0000 1.0000
52.6500 311.0000 1.0000
52.6600 347.0000 1.0000
52.6700 341.0000 1.0000
52.6800 317.0000 1.0000
52.6900 327.0000 1.0000
52.7000 292.0000 1.0000
52.7100 310.0000 1.0000
52.7200 289.0000 1.0000
52.7300 313.0000 1.0000
52.7400 273.0000 1.0000
52.7500 286.0000 1.0000
52.7600 271.0000 1.0000
52.7700 308.0000 1.0000
52.7800 314.0000 1.0000
52.7900 315.0000 1.0000
52.8000 314.0000 1.0000
52.8100 330.0000 1.0000
52.8200 321.0000 1.0000
52.8300 331.0000 1.0000
52.8400 306.0000 1.0000
52.8500 323.0000 1.0000
52.8600 306.0000 1.0000
52.8700 311.0000 1.0000
52.8800 308.0000 1.0000
52.8900 333.0000 1.0000
52.9000 308.0000 1.0000
52.9100 311.0000 1.0000
52.9200 310.0000 1.0000
52.9300 336.0000 1.0000
52.9400 306.0000 1.0000
52.9500 350.0000 1.0000
52.9600 308.0000 1.0000
52.9700 318.0000 1.0000
52.9800 320.0000 1.0000
52.9900 362.0000 1.0000
53.0000 323.0000 1.0000
53.0100 280.0000 1.0000
53.0200 299.0000 1.0000
53.0300 335.0000 1.0000
53.0400 319.0000 1.0000
53.0500 301.0000 1.0000
53.0600 324.0000 1.0000
53.0700 326.0000 1.0000
53.0800 313.0000 1.0000
53.0900 291.0000 1.0000
53.1000 347.0000 1.0000
53.1100 284.0000 1.0000
53.1200 295.0000 1.0000
53.1300 314.0000 1.0000
53.1400 314.0000 1.0000
53.1500 325.0000 1.0000
53.1600 302.0000 1.0000
53.1700 295.0000 1.0000
53.1800 313.0000 1.0000
53.1900 297.0000 1.0000
53.2000 334.0000 1.0000
53.2100 351.0000 1.0000
53.2200 319.0000 1.0000
53.2300 324.0000 1.0000
53.2400 335.0000 1.0000
53.2500 289.0000 1.0000
53.2600 318.0000 1.0000
53.2700 320.0000 1.0000
53.2800 296.0000 1.0000
53.2900 322.0000 1.0000
53.3000 292.0000 1.0000
53.3100 282.0000 1.0000
53.3200 303.0000 1.0000
53.3300 311.0000 1.0000
53.3400 322.0000 1.0000
53.3500 299.0000 1.0000
53.3600 332.0000 1.0000
53.3700 324.0000 1.0000
53.3800 304.0000 1.0000
53.3900 303.0000 1.0000
53.4000 330.0000 1.0000
53.4100 320.0000 1.0000
53.4200 286.0000 1.0000
53.4300 328.0000 1.0000
53.4400 325.0000 1.0000
53.4500 308.0000 1.0000
53.4600 307.0000 1.0000
53.4700 322.0000 1.0000
53.4800 319.0000 1.0000
53.4900 309.0000 1.0000
53.5000 306.0000 1.0000
53.5100 328.0000 1.0000
53.5200 309.0000 1.0000
53.5300 323.0000 1.0000
53.5400 339.0000 1.0000
53.5500 310.0000 1.0000
53.5600 327.0000 1.0000
53.5700 326.0000 1.0000
53.5800 327.0000 1.0000
53.5900 296.0000 1.0000
53.6000 310.0000 1.0000
53.6100 303.0000 1.0000
53.6200 364.0000 1.0000
53.6300 310.0000 1.0000
53.6400 332.0000 1.0000
53.6500 318.0000 1.0000
53.6600 298.0000 1.0000
53.6700 319.0000 1.0000
53.6800 315.0000 1.0000
53.6900 318.0000 1.0000
53.7000 322.0000 1.0000
53.7100 324.0000 1.0000
53.7200 337.0000 1.0000
53.7300 316.0000 1.0000
53.7400 339.0000 1.0000
53.7500 291.0000 1.0000
53.7600 313.0000 1.0000
53.7700 328.0000 1.0000
53.7800 340.0000 1.0000
53.7900 331.0000 1.0000
53.8000 332.0000 1.0000
53.8100 317.0000 1.0000
53.8200 310.0000 1.0000
53.8300 326.0000 1.0000
53.8400 325.0000 1.0000
53.8500 350.0000 1.0000
53.8600 332.0000 1.0000
53.8700 314.0000 1.0000
53.8800 307.0000 1.0000
53.8900 339.0000 1.0000
53.9000 341.0000 1.0000
53.9100 355.0000 1.0000
53.9200 360.0000 1.0000
53.9300 361.0000 1.0000
53.9400 367.0000 1.0000
53.9500 359.0000 1.0000
53.9600 370.0000 1.0000
53.9700 379.0000 1.0000
53.9800 340.0000 1.0000
53.9900 377.0000 1.0000
54.0000 372.0000 1.0000
54.0100 373.0000 1.0000
54.0200 396.0000 1.0000
54.0300 371.0000 1.0000
54.0400 342.0000 1.0000
54.0500 380.0000 1.0000
54.0600 380.0000 1.0000
54.0700 384.0000 1.0000
54.0800 372.0000 1.0000
54.0900 377.0000 1.0000
54.1000 394.0000 1.0000
54.1100 363.0000 1.0000
54.1200 387.0000 1.0000
54.1300 356.0000 1.0000
54.1400 365.0000 1.0000
54.1500 361.0000 1.0000
54.1600 368.0000 1.0000
54.1700 349.0000 1.0000
54.1800 355.0000 1.0000
54.1900 363.0000 1.0000
54.2000 380.0000 1.0000
54.2100 350.0000 1.0000
54.2200 348.0000 1.0000
54.2300 363.0000 1.0000
54.2400 341.0000 1.0000
54.2500 342.0000 1.0000
54.2600 349.0000 1.0000
54.2700 359.0000 1.0000
54.2800 373.0000 1.0000
54.2900 341.0000 1.0000
54.3000 358.0000 1.0000
54.3100 333.0000 1.0000
54.3200 347.0000 1.0000
54.3300 360.0000 1.0000
54.3400 376.0000 1.0000
54.3500 375.0000 1.0000
54.3600 364.0000 1.0000
54.3700 370.0000 1.0000
54.3800 348.0000 1.0000
54.3900 336.0000 1.0000
54.4000 343.0000 1.0000
54.4100 376.0000 1.0000
54.4200 339.0000 1.0000
54.4300 350.0000 1.0000
54.4400 368.0000 1.0000
54.4500 394.0000 1.0000
54.4600 403.0000 1.0000
54.4700 374.0000 1.0000
54.4800 374.0000 1.0000
54.4900 384.0000 1.0000
54.5000 429.0000 1.0000
54.5100 366.0000 1.0000
54.5200 344.0000 1.0000
54.5300 355.0000 1.0000
54.5400 382.0000 1.0000
54.5500 387.0000 1.0000
54.5600 386.0000 1.0000
54.5700 381.0000 1.0000
54.5800 359.0000 1.0000
54.5900 355.0000 1.0000
54.6000 361.0000 1.0000
54.6100 353.0000 1.0000
54.6200 347.0000 1.0000
54.6300 377.0000 1.0000
54.6400 389.0000 1.0000
54.6500 349.0000 1.0000
54.6600 381.0000 1.0000
54.6700 376.0000 1.0000
54.6800 331.0000 1.0000
54.6900 374.0000 1.0000
54.7000 335.0000 1.0000
54.7100 345.0000 1.0000
54.7200 364.0000 1.0000
54.7300 364.0000 1.0000
54.7400 375.0000 1.0000
54.7500 351.0000 1.0000
54.7600 365.0000 1.0000
54.7700 324.0000 1.0000
54.7800 320.0000 1.0000
54.7900 340.0000 1.0000
54.8000 330.0000 1.0000
54.8100 364.0000 1.0000
54.8200 307.0000 1.0000
54.8300 288.0000 1.0000
54.8400 348.0000 1.0000
54.8500 337.0000 1.0000
54.8600 338.0000 1.0000
54.8700 336.0000 1.0000
54.8800 315.0000 1.0000
54.8900 347.0000 1.0000
54.9000 312.0000 1.0000
54.9100 312.0000 1.0000
54.9200 328.0000 1.0000
54.9300 332.0000 1.0000
54.9400 310.0000 1.0000
54.9500 320.0000 1.0000
54.9600 321.0000 1.0000
54.9700 317.0000 1.0000
54.9800 322.0000 1.0000
54.9900 315.0000 1.0000
55.0000 324.0000 1.0000
55.0100 337.0000 1.0000
55.0200 314.0000 1.0000
55.0300 316.0000 1.0000
55.0400 285.0000 1.0000
55.0500 316.0000 1.0000
55.0600 315.0000 1.0000
55.0700 302.0000 1.0000
55.0800 313.0000 1.0000
55.0900 306.0000 1.0000
55.1000 279.0000 1.0000
55.1100 323.0000 1.0000
55.1200 314.0000 1.0000
55.1300 316.0000 1.0000
55.1400 289.0000 1.0000
55.1500 299.0000 1.0000
55.1600 309.0000 1.0000
55.1700 293.0000 1.0000
55.1800 323.0000 1.0000
55.1900 321.0000 1.0000
55.2000 305.0000 1.0000
55.2100 318.0000 1.0000
55.2200 320.0000 1.0000
55.2300 317.0000 1.0000
55.2400 337.0000 1.0000
55.2500 303.0000 1.0000
55.2600 295.0000 1.0000
55.2700 320.0000 1.0000
55.2800 295.0000 1.0000
55.2900 315.0000 1.0000
55.3000 314.0000 1.0000
55.3100 330.0000 1.0000
55.3200 326.0000 1.0000
55.3300 315.0000 1.0000
55.3400 296.0000 1.0000
55.3500 305.0000 1.0000
55.3600 286.0000 1.0000
55.3700 304.0000 1.0000
55.3800 293.0000 1.0000
55.3900 287.0000 1.0000
55.4000 295.0000 1.0000
55.4100 309.0000 1.0000
55.4200 312.0000 1.0000
55.4300 307.0000 1.0000
55.4400 296.0000 1.0000
55.4500 327.0000 1.0000
55.4600 310.0000 1.0000
55.4700 311.0000 1.0000
55.4800 305.0000 1.0000
55.4900 308.0000 1.0000
55.5000 318.0000 1.0000
55.5100 284.0000 1.0000
55.5200 302.0000 1.0000
55.5300 324.0000 1.0000
55.5400 297.0000 1.0000
55.5500 296.0000 1.0000
55.5600 291.0000 1.0000
55.5700 332.0000 1.0000
55.5800 306.0000 1.0000
55.5900 320.0000 1.0000
55.6000 301.0000 1.0000
55.6100 288.0000 1.0000
55.6200 300.0000 1.0000
55.6300 314.0000 1.0000
55.6400 297.0000 1.0000
55.6500 324.0000 1.0000
55.6600 325.0000 1.0000
55.6700 328.0000 1.0000
55.6800 296.0000 1.0000
55.6900 306.0000 1.0000
55.7000 291.0000 1.0000
55.7100 301.0000 1.0000
55.7200 281.0000 1.0000
55.7300 301.0000 1.0000
55.7400 330.0000 1.0000
55.7500 299.0000 1.0000
55.7600 307.0000 1.0000
55.7700 308.0000 1.0000
55.7800 307.0000 1.0000
55.7900 290.0000 1.0000
55.8000 287.0000 1.0000
55.8100 302.0000 1.0000
55.8200 324.0000 1.0000
55.8300 307.0000 1.0000
55.8400 295.0000 1.0000
55.8500 293.0000 1.0000
55.8600 318.0000 1.0000
55.8700 304.0000 1.0000
55.8800 321.0000 1.0000
55.8900 295.0000 1.0000
55.9000 317.0000 1.0000
55.9100 312.0000 1.0000
55.9200 317.0000 1.0000
55.9300 298.0000 1.0000
55.9400 303.0000 1.0000
55.9500 324.0000 1.0000
55.9600 284.0000 1.0000
55.9700 316.0000 1.0000
55.9800 323.0000 1.0000
55.9900 300.0000 1.0000
56.0000 303.0000 1.0000
56.0100 295.0000 1.0000
56.0200 292.0000 1.0000
56.0300 296.0000 1.0000
56.0400 296.0000 1.0000
56.0500 304.0000 1.0000
56.0600 280.0000 1.0000
56.0700 286.0000 1.0000
56.0800 317.0000 1.0000
56.0900 311.0000 1.0000
56.1000 298.0000 1.0000
56.1100 301.0000 1.0000
56.1200 300.0000 1.0000
56.1300 308.0000 1.0000
56.1400 311.0000 1.0000
56.1500 332.0000 1.0000
56.1600 302.0000 1.0000
56.1700 285.0000 1.0000
56.1800 307.0000 1.0000
56.1900 321.0000 1.0000
56.2000 298.0000 1.0000
56.2100 311.0000 1.0000
56.2200 344.0000 1.0000
56.2300 285.0000 1.0000
56.2400 277.0000 1.0000
56.2500 300.0000 1.0000
56.2600 311.0000 1.0000
56.2700 295.0000 1.0000
56.2800 294.0000 1.0000
56.2900 295.0000 1.0000
56.3000 293.0000 1.0000
56.3100 315.0000 1.0000
56.3200 338.0000 1.0000
56.3300 319.0000 1.0000
56.3400 284.0000 1.0000
56.3500 298.0000 1.0000
56.3600 290.0000 1.0000
56.3700 325.0000 1.0000
56.3800 319.0000 1.0000
56.3900 330.0000 1.0000
56.4000 286.0000 1.0000
56.4100 294.0000 1.0000
56.4200 311.0000 1.0000
56.4300 284.0000 1.0000
56.4400 290.0000 1.0000
56.4500 278.0000 1.0000
56.4600 298.0000 1.0000
56.4700 288.0000 1.0000
56.4800 302.0000 1.0000
56.4900 298.0000 1.0000
56.5000 298.0000 1.0000
56.5100 301.0000 1.0000
56.5200 319.0000 1.0000
56.5300 308.0000 1.0000
56.5400 289.0000 1.0000
56.5500 286.0000 1.0000
56.5600 279.0000 1.0000
56.5700 309.0000 1.0000
56.5800 326.0000 1.0000
56.5900 299.0000 1.0000
56.6000 292.0000 1.0000
56.6100 307.0000 1.0000
56.6200 301.0000 1.0000
56.6300 300.0000 1.0000
56.6400 294.0000 1.0000
56.6500 325.0000 1.0000
56.6600 281.0000 1.0000
56.6700 275.0000 1.0000
56.6800 288.0000 1.0000
56.6900 300.0000 1.0000
56.7000 302.0000 1.0000
56.7100 298.0000 1.0000
56.7200 305.0000 1.0000
56.7300 308.0000 1.0000
56.7400 307.0000 1.0000
56.7500 305.0000 1.0000
56.7600 289.0000 1.0000
56.7700 300.0000 1.0000
56.7800 293.0000 1.0000
56.7900 317.0000 1.0000
56.8000 308.0000 1.0000
56.8100 308.0000 1.0000
56.8200 300.0000 1.0000
56.8300 276.0000 1.0000
56.8400 322.0000 1.0000
56.8500 308.0000 1.0000
56.8600 308.0000 1.0000
56.8700 295.0000 1.0000
56.8800 296.0000 1.0000
56.8900 293.0000 1.0000
56.9000 311.0000 1.0000
56.9100 274.0000 1.0000
56.9200 280.0000 1.0000
56.9300 288.0000 1.0000
56.9400 306.0000 1.0000
56.9500 305.0000 1.0000
56.9600 312.0000 1.0000
56.9700 320.0000 1.0000
56.9800 301.0000 1.0000
56.9900 304.0000 1.0000
57.0000 279.0000 1.0000
57.0100 281.0000 1.0000
57.0200 291.0000 1.0000
57.0300 280.0000 1.0000
57.0400 335.0000 1.0000
57.0500 337.0000 1.0000
57.0600 300.0000 1.0000
57.0700 300.0000 1.0000
57.0800 281.0000 1.0000
57.0900 290.0000 1.0000
57.1000 294.0000 1.0000
57.1100 299.0000 1.0000
57.1200 303.0000 1.0000
57.1300 307.0000 1.0000
57.1400 301.0000 1.0000
57.1500 279.0000 1.0000
57.1600 300.0000 1.0000
57.1700 325.0000 1.0000
57.1800 306.0000 1.0000
57.1900 296.0000 1.0000
57.2000 297.0000 1.0000
57.2100 329.0000 1.0000
57.2200 282.0000 1.0000
57.2300 283.0000 1.0000
57.2400 290.0000 1.0000
57.2500 305.0000 1.0000
57.2600 311.0000 1.0000
57.2700 292.0000 1.0000
57.2800 298.0000 1.0000
57.2900 317.0000 1.0000
57.3000 274.0000 1.0000
57.3100 282.0000 1.0000
57.3200 299.0000 1.0000
57.3300 314.0000 1.0000
57.3400 341.0000 1.0000
57.3500 314.0000 1.0000
57.3600 306.0000 1.0000
57.3700 304.0000 1.0000
57.3800 292.0000 1.0000
57.3900 288.0000 1.0000
57.4000 317.0000 1.0000
57.4100 310.0000 1.0000
57.4200 333.0000 1.0000
57.4300 318.0000 1.0000
57.4400 320.0000 1.0000
57.4500 304.0000 1.0000
57.4600 292.0000 1.0000
57.4700 321.0000 1.0000
57.4800 307.0000 1.0000
57.4900 284.0000 1.0000
57.5000 303.0000 1.0000
57.5100 307.0000 1.0000
57.5200 316.0000 1.0000
57.5300 305.0000 1.0000
57.5400 328.0000 1.0000
57.5500 324.0000 1.0000
57.5600 329.0000 1.0000
57.5700 302.0000 1.0000
57.5800 323.0000 1.0000
57.5900 286.0000 1.0000
57.6000 293.0000 1.0000
57.6100 317.0000 1.0000
57.6200 314.0000 1.0000
57.6300 331.0000 1.0000
57.6400 295.0000 1.0000
57.6500 306.0000 1.0000
57.6600 314.0000 1.0000
57.6700 329.0000 1.0000
57.6800 291.0000 1.0000
57.6900 289.0000 1.0000
57.7000 313.0000 1.0000
57.7100 308.0000 1.0000
57.7200 309.0000 1.0000
57.7300 307.0000 1.0000
57.7400 278.0000 1.0000
57.7500 319.0000 1.0000
57.7600 296.0000 1.0000
57.7700 329.0000 1.0000
57.7800 281.0000 1.0000
57.7900 313.0000 1.0000
57.8000 303.0000 1.0000
57.8100 305.0000 1.0000
57.8200 312.0000 1.0000
57.8300 317.0000 1.0000
57.8400 278.0000 1.0000
57.8500 287.0000 1.0000
57.8600 318.0000 1.0000
57.8700 290.0000 1.0000
57.8800 264.0000 1.0000
57.8900 252.0000 1.0000
57.9000 299.0000 1.0000
57.9100 281.0000 1.0000
57.9200 308.0000 1.0000
57.9300 305.0000 1.0000
57.9400 289.0000 1.0000
57.9500 306.0000 1.0000
57.9600 271.0000 1.0000
57.9700 269.0000 1.0000
57.9800 292.0000 1.0000
57.9900 287.0000 1.0000
58.0000 321.0000 1.0000
58.0100 296.0000 1.0000
58.0200 316.0000 1.0000
58.0300 284.0000 1.0000
58.0400 270.0000 1.0000
58.0500 266.0000 1.0000
58.0600 274.0000 1.0000
58.0700 272.0000 1.0000
58.0800 302.0000 1.0000
58.0900 282.0000 1.0000
58.1000 292.0000 1.0000
58.1100 260.0000 1.0000
58.1200 296.0000 1.0000
58.1300 293.0000 1.0000
58.1400 284.0000 1.0000
58.1500 293.0000 1.0000
58.1600 271.0000 1.0000
58.1700 299.0000 1.0000
58.1800 280.0000 1.0000
58.1900 292.0000 1.0000
58.2000 294.0000 1.0000
58.2100 258.0000 1.0000
58.2200 300.0000 1.0000
58.2300 295.0000 1.0000
58.2400 320.0000 1.0000
58.2500 294.0000 1.0000
58.2600 281.0000 1.0000
58.2700 302.0000 1.0000
58.2800 282.0000 1.0000
58.2900 287.0000 1.0000
58.3000 299.0000 1.0000
58.3100 293.0000 1.0000
58.3200 319.0000 1.0000
58.3300 304.0000 1.0000
58.3400 311.0000 1.0000
58.3500 327.0000 1.0000
58.3600 277.0000 1.0000
58.3700 291.0000 1.0000
58.3800 279.0000 1.0000
58.3900 270.0000 1.0000
58.4000 277.0000 1.0000
58.4100 284.0000 1.0000
58.4200 296.0000 1.0000
58.4300 314.0000 1.0000
58.4400 300.0000 1.0000
58.4500 290.0000 1.0000
58.4600 302.0000 1.0000
58.4700 326.0000 1.0000
58.4800 301.0000 1.0000
58.4900 299.0000 1.0000
58.5000 295.0000 1.0000
58.5100 293.0000 1.0000
58.5200 310.0000 1.0000
58.5300 321.0000 1.0000
58.5400 321.0000 1.0000
58.5500 307.0000 1.0000
58.5600 309.0000 1.0000
58.5700 301.0000 1.0000
58.5800 290.0000 1.0000
58.5900 297.0000 1.0000
58.6000 283.0000 1.0000
58.6100 302.0000 1.0000
58.6200 288.0000 1.0000
58.6300 312.0000 1.0000
58.6400 284.0000 1.0000
58.6500 310.0000 1.0000
58.6600 306.0000 1.0000
58.6700 293.0000 1.0000
58.6800 318.0000 1.0000
58.6900 329.0000 1.0000
58.7000 308.0000 1.0000
58.7100 290.0000 1.0000
58.7200 304.0000 1.0000
58.7300 323.0000 1.0000
58.7400 294.0000 1.0000
58.7500 317.0000 1.0000
58.7600 307.0000 1.0000
58.7700 289.0000 1.0000
58.7800 321.0000 1.0000
58.7900 287.0000 1.0000
58.8000 284.0000 1.0000
58.8100 300.0000 1.0000
58.8200 300.0000 1.0000
58.8300 316.0000 1.0000
58.8400 294.0000 1.0000
58.8500 277.0000 1.0000
58.8600 283.0000 1.0000
58.8700 302.0000 1.0000
58.8800 321.0000 1.0000
58.8900 286.0000 1.0000
58.9000 283.0000 1.0000
58.9100 291.0000 1.0000
58.9200 303.0000 1.0000
58.9300 294.0000 1.0000
58.9400 282.0000 1.0000
58.9500 314.0000 1.0000
58.9600 309.0000 1.0000
58.9700 280.0000 1.0000
58.9800 295.0000 1.0000
58.9900 317.0000 1.0000
59.0000 293.0000 1.0000
59.0100 286.0000 1.0000
59.0200 273.0000 1.0000
59.0300 303.0000 1.0000
59.0400 313.0000 1.0000
59.0500 305.0000 1.0000
59.0600 281.0000 1.0000
59.0700 285.0000 1.0000
59.0800 290.0000 1.0000
59.0900 302.0000 1.0000
59.1000 270.0000 1.0000
59.1100 309.0000 1.0000
59.1200 319.0000 1.0000
59.1300 291.0000 1.0000
59.1400 263.0000 1.0000
59.1500 293.0000 1.0000
59.1600 305.0000 1.0000
59.1700 290.0000 1.0000
59.1800 281.0000 1.0000
59.1900 284.0000 1.0000
59.2000 286.0000 1.0000
59.2100 321.0000 1.0000
59.2200 273.0000 1.0000
59.2300 277.0000 1.0000
59.2400 282.0000 1.0000
59.2500 316.0000 1.0000
59.2600 285.0000 1.0000
59.2700 301.0000 1.0000
59.2800 304.0000 1.0000
59.2900 295.0000 1.0000
59.3000 302.0000 1.0000
59.3100 285.0000 1.0000
59.3200 288.0000 1.0000
59.3300 286.0000 1.0000
59.3400 327.0000 1.0000
59.3500 293.0000 1.0000
59.3600 313.0000 1.0000
59.3700 293.0000 1.0000
59.3800 281.0000 1.0000
59.3900 283.0000 1.0000
59.4000 305.0000 1.0000
59.4100 291.0000 1.0000
59.4200 269.0000 1.0000
59.4300 319.0000 1.0000
59.4400 300.0000 1.0000
59.4500 295.0000 1.0000
59.4600 275.0000 1.0000
59.4700 296.0000 1.0000
59.4800 291.0000 1.0000
59.4900 299.0000 1.0000
59.5000 297.0000 1.0000
59.5100 297.0000 1.0000
59.5200 301.0000 1.0000
59.5300 287.0000 1.0000
59.5400 268.0000 1.0000
59.5500 267.0000 1.0000
59.5600 281.0000 1.0000
59.5700 306.0000 1.0000
59.5800 309.0000 1.0000
59.5900 309.0000 1.0000
59.6000 310.0000 1.0000
59.6100 288.0000 1.0000
59.6200 305.0000 1.0000
59.6300 294.0000 1.0000
59.6400 325.0000 1.0000
59.6500 297.0000 1.0000
59.6600 294.0000 1.0000
59.6700 285.0000 1.0000
59.6800 280.0000 1.0000
59.6900 293.0000 1.0000
59.7000 296.0000 1.0000
59.7100 296.0000 1.0000
59.7200 290.0000 1.0000
59.7300 300.0000 1.0000
59.7400 306.0000 1.0000
59.7500 289.0000 1.0000
59.7600 272.0000 1.0000
59.7700 305.0000 1.0000
59.7800 299.0000 1.0000
59.7900 313.0000 1.0000
59.8000 326.0000 1.0000
59.8100 305.0000 1.0000
59.8200 291.0000 1.0000
59.8300 278.0000 1.0000
59.8400 294.0000 1.0000
59.8500 309.0000 1.0000
59.8600 276.0000 1.0000
59.8700 309.0000 1.0000
59.8800 305.0000 1.0000
59.8900 312.0000 1.0000
59.9000 290.0000 1.0000
59.9100 264.0000 1.0000
59.9200 254.0000 1.0000
59.9300 314.0000 1.0000
59.9400 314.0000 1.0000
59.9500 276.0000 1.0000
59.9600 284.0000 1.0000
59.9700 300.0000 1.0000
59.9800 275.0000 1.0000
59.9900 301.0000 1.0000
60.0000 291.0000 1.0000
60.0100 298.0000 1.0000
60.0200 284.0000 1.0000
60.0300 298.0000 1.0000
60.0400 284.0000 1.0000
60.0500 297.0000 1.0000
60.0600 285.0000 1.0000
60.0700 296.0000 1.0000
60.0800 295.0000 1.0000
60.0900 305.0000 1.0000
60.1000 289.0000 1.0000
60.1100 282.0000 1.0000
60.1200 294.0000 1.0000
60.1300 277.0000 1.0000
60.1400 268.0000 1.0000
60.1500 298.0000 1.0000
60.1600 299.0000 1.0000
60.1700 288.0000 1.0000
60.1800 297.0000 1.0000
60.1900 305.0000 1.0000
60.2000 293.0000 1.0000
60.2100 287.0000 1.0000
60.2200 305.0000 1.0000
60.2300 302.0000 1.0000
60.2400 289.0000 1.0000
60.2500 291.0000 1.0000
60.2600 299.0000 1.0000
60.2700 305.0000 1.0000
60.2800 333.0000 1.0000
60.2900 303.0000 1.0000
60.3000 306.0000 1.0000
60.3100 328.0000 1.0000
60.3200 297.0000 1.0000
60.3300 314.0000 1.0000
60.3400 309.0000 1.0000
60.3500 314.0000 1.0000
60.3600 328.0000 1.0000
60.3700 297.0000 1.0000
60.3800 283.0000 1.0000
60.3900 288.0000 1.0000
60.4000 314.0000 1.0000
60.4100 305.0000 1.0000
60.4200 307.0000 1.0000
60.4300 282.0000 1.0000
60.4400 252.0000 1.0000
60.4500 294.0000 1.0000
60.4600 313.0000 1.0000
60.4700 312.0000 1.0000
60.4800 296.0000 1.0000
60.4900 307.0000 1.0000
60.5000 313.0000 1.0000
60.5100 299.0000 1.0000
60.5200 316.0000 1.0000
60.5300 310.0000 1.0000
60.5400 303.0000 1.0000
60.5500 316.0000 1.0000
60.5600 319.0000 1.0000
60.5700 315.0000 1.0000
60.5800 297.0000 1.0000
60.5900 306.0000 1.0000
60.6000 282.0000 1.0000
60.6100 306.0000 1.0000
60.6200 289.0000 1.0000
60.6300 316.0000 1.0000
60.6400 293.0000 1.0000
60.6500 313.0000 1.0000
60.6600 299.0000 1.0000
60.6700 310.0000 1.0000
60.6800 271.0000 1.0000
60.6900 287.0000 1.0000
60.7000 307.0000 1.0000
60.7100 296.0000 1.0000
60.7200 302.0000 1.0000
60.7300 292.0000 1.0000
60.7400 285.0000 1.0000
60.7500 301.0000 1.0000
60.7600 325.0000 1.0000
60.7700 316.0000 1.0000
60.7800 268.0000 1.0000
60.7900 308.0000 1.0000
60.8000 310.0000 1.0000
60.8100 322.0000 1.0000
60.8200 302.0000 1.0000
60.8300 309.0000 1.0000
60.8400 335.0000 1.0000
60.8500 322.0000 1.0000
60.8600 335.0000 1.0000
60.8700 345.0000 1.0000
60.8800 327.0000 1.0000
60.8900 316.0000 1.0000
60.9000 293.0000 1.0000
60.9100 321.0000 1.0000
60.9200 300.0000 1.0000
60.9300 310.0000 1.0000
60.9400 297.0000 1.0000
60.9500 280.0000 1.0000
60.9600 305.0000 1.0000
60.9700 305.0000 1.0000
60.9800 297.0000 1.0000
60.9900 304.0000 1.0000
61.0000 298.0000 1.0000
61.0100 318.0000 1.0000
61.0200 289.0000 1.0000
61.0300 366.0000 1.0000
61.0400 305.0000 1.0000
61.0500 318.0000 1.0000
61.0600 327.0000 1.0000
61.0700 348.0000 1.0000
61.0800 337.0000 1.0000
61.0900 328.0000 1.0000
61.1000 332.0000 1.0000
61.1100 338.0000 1.0000
61.1200 334.0000 1.0000
61.1300 323.0000 1.0000
61.1400 353.0000 1.0000
61.1500 317.0000 1.0000
61.1600 338.0000 1.0000
61.1700 363.0000 1.0000
61.1800 340.0000 1.0000
61.1900 346.0000 1.0000
61.2000 329.0000 1.0000
61.2100 337.0000 1.0000
61.2200 338.0000 1.0000
61.2300 362.0000 1.0000
61.2400 342.0000 1.0000
61.2500 365.0000 1.0000
61.2600 361.0000 1.0000
61.2700 381.0000 1.0000
61.2800 357.0000 1.0000
61.2900 362.0000 1.0000
61.3000 362.0000 1.0000
61.3100 382.0000 1.0000
61.3200 382.0000 1.0000
61.3300 408.0000 1.0000
61.3400 395.0000 1.0000
61.3500 428.0000 1.0000
61.3600 412.0000 1.0000
61.3700 395.0000 1.0000
61.3800 421.0000 1.0000
61.3900 424.0000 1.0000
61.4000 430.0000 1.0000
61.4100 451.0000 1.0000
61.4200 471.0000 1.0000
61.4300 454.0000 1.0000
61.4400 508.0000 1.0000
61.4500 483.0000 1.0000
61.4600 484.0000 1.0000
61.4700 495.0000 1.0000
61.4800 524.0000 1.0000
61.4900 540.0000 1.0000
61.5000 519.0000 1.0000
61.5100 571.0000 1.0000
61.5200 562.0000 1.0000
61.5300 542.0000 1.0000
61.5400 548.0000 1.0000
61.5500 527.0000 1.0000
61.5600 585.0000 1.0000
61.5700 605.0000 1.0000
61.5800 597.0000 1.0000
61.5900 597.0000 1.0000
61.6000 583.0000 1.0000
61.6100 563.0000 1.0000
61.6200 546.0000 1.0000
61.6300 592.0000 1.0000
61.6400 617.0000 1.0000
61.6500 563.0000 1.0000
61.6600 594.0000 1.0000
61.6700 568.0000 1.0000
61.6800 554.0000 1.0000
61.6900 526.0000 1.0000
61.7000 567.0000 1.0000
61.7100 554.0000 1.0000
61.7200 519.0000 1.0000
61.7300 543.0000 1.0000
61.7400 525.0000 1.0000
61.7500 541.0000 1.0000
61.7600 492.0000 1.0000
61.7700 515.0000 1.0000
61.7800 503.0000 1.0000
61.7900 528.0000 1.0000
61.8000 489.0000 1.0000
61.8100 486.0000 1.0000
61.8200 470.0000 1.0000
61.8300 458.0000 1.0000
61.8400 450.0000 1.0000
61.8500 443.0000 1.0000
61.8600 449.0000 1.0000
61.8700 463.0000 1.0000
61.8800 432.0000 1.0000
61.8900 418.0000 1.0000
61.9000 422.0000 1.0000
61.9100 402.0000 1.0000
61.9200 424.0000 1.0000
61.9300 437.0000 1.0000
61.9400 405.0000 1.0000
61.9500 414.0000 1.0000
61.9600 387.0000 1.0000
61.9700 408.0000 1.0000
61.9800 391.0000 1.0000
61.9900 406.0000 1.0000
62.0000 396.0000 1.0000
62.0100 351.0000 1.0000
62.0200 362.0000 1.0000
62.0300 385.0000 1.0000
62.0400 363.0000 1.0000
62.0500 370.0000 1.0000
62.0600 377.0000 1.0000
62.0700 361.0000 1.0000
62.0800 361.0000 1.0000
62.0900 327.0000 1.0000
62.1000 359.0000 1.0000
62.1100 384.0000 1.0000
62.1200 342.0000 1.0000
62.1300 377.0000 1.0000
62.1400 340.0000 1.0000
62.1500 333.0000 1.0000
62.1600 364.0000 1.0000
62.1700 359.0000 1.0000
62.1800 353.0000 1.0000
62.1900 344.0000 1.0000
62.2000 325.0000 1.0000
62.2100 356.0000 1.0000
62.2200 338.0000 1.0000
62.2300 370.0000 1.0000
62.2400 358.0000 1.0000
62.2500 353.0000 1.0000
62.2600 367.0000 1.0000
62.2700 327.0000 1.0000
62.2800 325.0000 1.0000
62.2900 367.0000 1.0000
62.3000 347.0000 1.0000
62.3100 354.0000 1.0000
62.3200 373.0000 1.0000
62.3300 350.0000 1.0000
62.3400 360.0000 1.0000
62.3500 354.0000 1.0000
62.3600 361.0000 1.0000
62.3700 389.0000 1.0000
62.3800 365.0000 1.0000
62.3900 359.0000 1.0000
62.4000 399.0000 1.0000
62.4100 362.0000 1.0000
62.4200 367.0000 1.0000
62.4300 360.0000 1.0000
62.4400 360.0000 1.0000
62.4500 345.0000 1.0000
62.4600 332.0000 1.0000
62.4700 398.0000 1.0000
62.4800 373.0000 1.0000
62.4900 364.0000 1.0000
62.5000 343.0000 1.0000
62.5100 349.0000 1.0000
62.5200 334.0000 1.0000
62.5300 339.0000 1.0000
62.5400 331.0000 1.0000
62.5500 358.0000 1.0000
62.5600 350.0000 1.0000
62.5700 360.0000 1.0000
62.5800 337.0000 1.0000
62.5900 353.0000 1.0000
62.6000 332.0000 1.0000
62.6100 322.0000 1.0000
62.6200 302.0000 1.0000
62.6300 308.0000 1.0000
62.6400 335.0000 1.0000
62.6500 321.0000 1.0000
62.6600 318.0000 1.0000
62.6700 304.0000 1.0000
62.6800 303.0000 1.0000
62.6900 321.0000 1.0000
62.7000 308.0000 1.0000
62.7100 342.0000 1.0000
62.7200 306.0000 1.0000
62.7300 301.0000 1.0000
62.7400 334.0000 1.0000
62.7500 306.0000 1.0000
62.7600 302.0000 1.0000
62.7700 301.0000 1.0000
62.7800 307.0000 1.0000
62.7900 332.0000 1.0000
62.8000 318.0000 1.0000
62.8100 283.0000 1.0000
62.8200 283.0000 1.0000
62.8300 320.0000 1.0000
62.8400 299.0000 1.0000
62.8500 307.0000 1.0000
62.8600 306.0000 1.0000
62.8700 339.0000 1.0000
62.8800 306.0000 1.0000
62.8900 333.0000 1.0000
62.9000 319.0000 1.0000
62.9100 324.0000 1.0000
62.9200 314.0000 1.0000
62.9300 296.0000 1.0000
62.9400 296.0000 1.0000
62.9500 300.0000 1.0000
62.9600 290.0000 1.0000
62.9700 307.0000 1.0000
62.9800 305.0000 1.0000
62.9900 329.0000 1.0000
63.0000 302.0000 1.0000
63.0100 297.0000 1.0000
63.0200 318.0000 1.0000
63.0300 287.0000 1.0000
63.0400 299.0000 1.0000
63.0500 314.0000 1.0000
63.0600 302.0000 1.0000
63.0700 270.0000 1.0000
63.0800 295.0000 1.0000
63.0900 298.0000 1.0000
63.1000 290.0000 1.0000
63.1100 297.0000 1.0000
63.1200 304.0000 1.0000
63.1300 329.0000 1.0000
63.1400 278.0000 1.0000
63.1500 325.0000 1.0000
63.1600 300.0000 1.0000
63.1700 273.0000 1.0000
63.1800 308.0000 1.0000
63.1900 310.0000 1.0000
63.2000 333.0000 1.0000
63.2100 306.0000 1.0000
63.2200 318.0000 1.0000
63.2300 279.0000 1.0000
63.2400 296.0000 1.0000
63.2500 300.0000 1.0000
63.2600 273.0000 1.0000
63.2700 308.0000 1.0000
63.2800 316.0000 1.0000
63.2900 318.0000 1.0000
63.3000 281.0000 1.0000
63.3100 283.0000 1.0000
63.3200 262.0000 1.0000
63.3300 299.0000 1.0000
63.3400 276.0000 1.0000
63.3500 281.0000 1.0000
63.3600 312.0000 1.0000
63.3700 302.0000 1.0000
63.3800 305.0000 1.0000
63.3900 309.0000 1.0000
63.4000 306.0000 1.0000
63.4100 304.0000 1.0000
63.4200 286.0000 1.0000
63.4300 288.0000 1.0000
63.4400 297.0000 1.0000
63.4500 294.0000 1.0000
63.4600 300.0000 1.0000
63.4700 307.0000 1.0000
63.4800 291.0000 1.0000
63.4900 322.0000 1.0000
63.5000 311.0000 1.0000
63.5100 317.0000 1.0000
63.5200 321.0000 1.0000
63.5300 293.0000 1.0000
63.5400 284.0000 1.0000
63.5500 328.0000 1.0000
63.5600 322.0000 1.0000
63.5700 283.0000 1.0000
63.5800 286.0000 1.0000
63.5900 298.0000 1.0000
63.6000 321.0000 1.0000
63.6100 312.0000 1.0000
63.6200 294.0000 1.0000
63.6300 312.0000 1.0000
63.6400 311.0000 1.0000
63.6500 308.0000 1.0000
63.6600 301.0000 1.0000
63.6700 297.0000 1.0000
63.6800 328.0000 1.0000
63.6900 317.0000 1.0000
63.7000 301.0000 1.0000
63.7100 307.0000 1.0000
63.7200 322.0000 1.0000
63.7300 326.0000 1.0000
63.7400 328.0000 1.0000
63.7500 312.0000 1.0000
63.7600 338.0000 1.0000
63.7700 294.0000 1.0000
63.7800 325.0000 1.0000
63.7900 332.0000 1.0000
63.8000 338.0000 1.0000
63.8100 343.0000 1.0000
63.8200 334.0000 1.0000
63.8300 345.0000 1.0000
63.8400 356.0000 1.0000
63.8500 370.0000 1.0000
63.8600 346.0000 1.0000
63.8700 385.0000 1.0000
63.8800 368.0000 1.0000
63.8900 386.0000 1.0000
63.9000 390.0000 1.0000
63.9100 432.0000 1.0000
63.9200 385.0000 1.0000
63.9300 415.0000 1.0000
63.9400 414.0000 1.0000
63.9500 409.0000 1.0000
63.9600 401.0000 1.0000
63.9700 402.0000 1.0000
63.9800 427.0000 1.0000
63.9900 424.0000 1.0000
64.0000 419.0000 1.0000
64.0100 412.0000 1.0000
64.0200 397.0000 1.0000
64.0300 386.0000 1.0000
64.0400 424.0000 1.0000
64.0500 396.0000 1.0000
64.0600 365.0000 1.0000
64.0700 393.0000 1.0000
64.0800 394.0000 1.0000
64.0900 407.0000 1.0000
64.1000 369.0000 1.0000
64.1100 363.0000 1.0000
64.1200 369.0000 1.0000
64.1300 357.0000 1.0000
64.1400 350.0000 1.0000
64.1500 396.0000 1.0000
64.1600 367.0000 1.0000
64.1700 357.0000 1.0000
64.1800 360.0000 1.0000
64.1900 372.0000 1.0000
64.2000 374.0000 1.0000
64.2100 346.0000 1.0000
64.2200 356.0000 1.0000
64.2300 328.0000 1.0000
64.2400 327.0000 1.0000
64.2500 349.0000 1.0000
64.2600 315.0000 1.0000
64.2700 324.0000 1.0000
64.2800 331.0000 1.0000
64.2900 318.0000 1.0000
64.3000 348.0000 1.0000
64.3100 336.0000 1.0000
64.3200 322.0000 1.0000
64.3300 294.0000 1.0000
64.3400 299.0000 1.0000
64.3500 314.0000 1.0000
64.3600 313.0000 1.0000
64.3700 294.0000 1.0000
64.3800 329.0000 1.0000
64.3900 323.0000 1.0000
64.4000 338.0000 1.0000
64.4100 295.0000 1.0000
64.4200 292.0000 1.0000
64.4300 294.0000 1.0000
64.4400 302.0000 1.0000
64.4500 316.0000 1.0000
64.4600 325.0000 1.0000
64.4700 308.0000 1.0000
64.4800 284.0000 1.0000
64.4900 287.0000 1.0000
64.5000 346.0000 1.0000
64.5100 335.0000 1.0000
64.5200 334.0000 1.0000
64.5300 307.0000 1.0000
64.5400 295.0000 1.0000
64.5500 303.0000 1.0000
64.5600 286.0000 1.0000
64.5700 290.0000 1.0000
64.5800 299.0000 1.0000
64.5900 281.0000 1.0000
64.6000 329.0000 1.0000
64.6100 312.0000 1.0000
64.6200 313.0000 1.0000
64.6300 290.0000 1.0000
64.6400 303.0000 1.0000
64.6500 307.0000 1.0000
64.6600 312.0000 1.0000
64.6700 315.0000 1.0000
64.6800 298.0000 1.0000
64.6900 290.0000 1.0000
64.7000 294.0000 1.0000
64.7100 321.0000 1.0000
64.7200 271.0000 1.0000
64.7300 309.0000 1.0000
64.7400 331.0000 1.0000
64.7500 293.0000 1.0000
64.7600 308.0000 1.0000
64.7700 303.0000 1.0000
64.7800 305.0000 1.0000
64.7900 312.0000 1.0000
64.8000 320.0000 1.0000
64.8100 308.0000 1.0000
64.8200 287.0000 1.0000
64.8300 280.0000 1.0000
64.8400 292.0000 1.0000
64.8500 333.0000 1.0000
64.8600 325.0000 1.0000
64.8700 298.0000 1.0000
64.8800 287.0000 1.0000
64.8900 293.0000 1.0000
64.9000 306.0000 1.0000
64.9100 308.0000 1.0000
64.9200 320.0000 1.0000
64.9300 294.0000 1.0000
64.9400 301.0000 1.0000
64.9500 348.0000 1.0000
64.9600 309.0000 1.0000
64.9700 333.0000 1.0000
64.9800 348.0000 1.0000
64.9900 335.0000 1.0000
65.0000 327.0000 1.0000
65.0100 329.0000 1.0000
65.0200 339.0000 1.0000
65.0300 340.0000 1.0000
65.0400 325.0000 1.0000
65.0500 331.0000 1.0000
65.0600 321.0000 1.0000
65.0700 350.0000 1.0000
65.0800 360.0000 1.0000
65.0900 359.0000 1.0000
65.1000 350.0000 1.0000
65.1100 350.0000 1.0000
65.1200 343.0000 1.0000
65.1300 352.0000 1.0000
65.1400 367.0000 1.0000
65.1500 365.0000 1.0000
65.1600 337.0000 1.0000
65.1700 368.0000 1.0000
65.1800 404.0000 1.0000
65.1900 379.0000 1.0000
65.2000 422.0000 1.0000
65.2100 417.0000 1.0000
65.2200 383.0000 1.0000
65.2300 427.0000 1.0000
65.2400 415.0000 1.0000
65.2500 404.0000 1.0000
65.2600 390.0000 1.0000
65.2700 410.0000 1.0000
65.2800 440.0000 1.0000
65.2900 437.0000 1.0000
65.3000 432.0000 1.0000
65.3100 454.0000 1.0000
65.3200 487.0000 1.0000
65.3300 504.0000 1.0000
65.3400 484.0000 1.0000
65.3500 496.0000 1.0000
65.3600 525.0000 1.0000
65.3700 572.0000 1.0000
65.3800 565.0000 1.0000
65.3900 581.0000 1.0000
65.4000 623.0000 1.0000
65.4100 648.0000 1.0000
65.4200 665.0000 1.0000
65.4300 719.0000 1.0000
65.4400 730.0000 1.0000
65.4500 736.0000 1.0000
65.4600 767.0000 1.0000
65.4700 767.0000 1.0000
65.4800 783.0000 1.0000
65.4900 813.0000 1.0000
65.5000 845.0000 1.0000
65.5100 819.0000 1.0000
65.5200 872.0000 1.0000
65.5300 815.0000 1.0000
65.5400 819.0000 1.0000
65.5500 851.0000 1.0000
65.5600 849.0000 1.0000
65.5700 848.0000 1.0000
65.5800 803.0000 1.0000
65.5900 770.0000 1.0000
65.6000 789.0000 1.0000
65.6100 736.0000 1.0000
65.6200 777.0000 1.0000
65.6300 766.0000 1.0000
65.6400 753.0000 1.0000
65.6500 743.0000 1.0000
65.6600 710.0000 1.0000
65.6700 686.0000 1.0000
65.6800 724.0000 1.0000
65.6900 696.0000 1.0000
65.7000 688.0000 1.0000
65.7100 649.0000 1.0000
65.7200 690.0000 1.0000
65.7300 646.0000 1.0000
65.7400 581.0000 1.0000
65.7500 609.0000 1.0000
65.7600 588.0000 1.0000
65.7700 598.0000 1.0000
65.7800 574.0000 1.0000
65.7900 506.0000 1.0000
65.8000 519.0000 1.0000
65.8100 520.0000 1.0000
65.8200 524.0000 1.0000
65.8300 462.0000 1.0000
65.8400 456.0000 1.0000
65.8500 468.0000 1.0000
65.8600 479.0000 1.0000
65.8700 434.0000 1.0000
65.8800 415.0000 1.0000
65.8900 438.0000 1.0000
65.9000 396.0000 1.0000
65.9100 431.0000 1.0000
65.9200 416.0000 1.0000
65.9300 410.0000 1.0000
65.9400 411.0000 1.0000
65.9500 396.0000 1.0000
65.9600 364.0000 1.0000
65.9700 395.0000 1.0000
65.9800 379.0000 1.0000
65.9900 337.0000 1.0000
66.0000 363.0000 1.0000
66.0100 374.0000 1.0000
66.0200 339.0000 1.0000
66.0300 336.0000 1.0000
66.0400 349.0000 1.0000
66.0500 339.0000 1.0000
66.0600 309.0000 1.0000
66.0700 326.0000 1.0000
66.0800 317.0000 1.0000
66.0900 315.0000 1.0000
66.1000 303.0000 1.0000
66.1100 283.0000 1.0000
66.1200 329.0000 1.0000
66.1300 340.0000 1.0000
66.1400 320.0000 1.0000
66.1500 351.0000 1.0000
66.1600 316.0000 1.0000
66.1700 326.0000 1.0000
66.1800 360.0000 1.0000
66.1900 341.0000 1.0000
66.2000 329.0000 1.0000
66.2100 327.0000 1.0000
66.2200 317.0000 1.0000
66.2300 327.0000 1.0000
66.2400 330.0000 1.0000
66.2500 310.0000 1.0000
66.2600 329.0000 1.0000
66.2700 307.0000 1.0000
66.2800 299.0000 1.0000
66.2900 297.0000 1.0000
66.3000 325.0000 1.0000
66.3100 317.0000 1.0000
66.3200 300.0000 1.0000
66.3300 293.0000 1.0000
66.3400 310.0000 1.0000
66.3500 295.0000 1.0000
66.3600 307.0000 1.0000
66.3700 309.0000 1.0000
66.3800 306.0000 1.0000
66.3900 301.0000 1.0000
66.4000 275.0000 1.0000
66.4100 264.0000 1.0000
66.4200 290.0000 1.0000
66.4300 302.0000 1.0000
66.4400 308.0000 1.0000
66.4500 310.0000 1.0000
66.4600 289.0000 1.0000
66.4700 291.0000 1.0000
66.4800 293.0000 1.0000
66.4900 302.0000 1.0000
66.5000 281.0000 1.0000
66.5100 291.0000 1.0000
66.5200 259.0000 1.0000
66.5300 286.0000 1.0000
66.5400 293.0000 1.0000
66.5500 275.0000 1.0000
66.5600 282.0000 1.0000
66.5700 290.0000 1.0000
66.5800 281.0000 1.0000
66.5900 278.0000 1.0000
66.6000 242.0000 1.0000
66.6100 287.0000 1.0000
66.6200 293.0000 1.0000
66.6300 281.0000 1.0000
66.6400 295.0000 1.0000
66.6500 296.0000 1.0000
66.6600 276.0000 1.0000
66.6700 263.0000 1.0000
66.6800 281.0000 1.0000
66.6900 309.0000 1.0000
66.7000 266.0000 1.0000
66.7100 285.0000 1.0000
66.7200 281.0000 1.0000
66.7300 281.0000 1.0000
66.7400 292.0000 1.0000
66.7500 306.0000 1.0000
66.7600 285.0000 1.0000
66.7700 278.0000 1.0000
66.7800 278.0000 1.0000
66.7900 295.0000 1.0000
66.8000 305.0000 1.0000
66.8100 276.0000 1.0000
66.8200 268.0000 1.0000
66.8300 276.0000 1.0000
66.8400 277.0000 1.0000
66.8500 272.0000 1.0000
66.8600 287.0000 1.0000
66.8700 260.0000 1.0000
66.8800 313.0000 1.0000
66.8900 311.0000 1.0000
66.9000 281.0000 1.0000
66.9100 270.0000 1.0000
66.9200 287.0000 1.0000
66.9300 291.0000 1.0000
66.9400 302.0000 1.0000
66.9500 304.0000 1.0000
66.9600 281.0000 1.0000
66.9700 275.0000 1.0000
66.9800 270.0000 1.0000
66.9900 268.0000 1.0000
67.0000 275.0000 1.0000
67.0100 269.0000 1.0000
67.0200 281.0000 1.0000
67.0300 270.0000 1.0000
67.0400 248.0000 1.0000
67.0500 285.0000 1.0000
67.0600 290.0000 1.0000
67.0700 274.0000 1.0000
67.0800 266.0000 1.0000
67.0900 245.0000 1.0000
67.1000 266.0000 1.0000
67.1100 284.0000 1.0000
67.1200 273.0000 1.0000
67.1300 293.0000 1.0000
67.1400 287.0000 1.0000
67.1500 272.0000 1.0000
67.1600 287.0000 1.0000
67.1700 279.0000 1.0000
67.1800 282.0000 1.0000
67.1900 272.0000 1.0000
67.2000 283.0000 1.0000
67.2100 291.0000 1.0000
67.2200 260.0000 1.0000
67.2300 284.0000 1.0000
67.2400 292.0000 1.0000
67.2500 267.0000 1.0000
67.2600 252.0000 1.0000
67.2700 279.0000 1.0000
67.2800 290.0000 1.0000
67.2900 290.0000 1.0000
67.3000 270.0000 1.0000
67.3100 269.0000 1.0000
67.3200 281.0000 1.0000
67.3300 288.0000 1.0000
67.3400 258.0000 1.0000
67.3500 267.0000 1.0000
67.3600 264.0000 1.0000
67.3700 241.0000 1.0000
67.3800 262.0000 1.0000
67.3900 277.0000 1.0000
67.4000 250.0000 1.0000
67.4100 274.0000 1.0000
67.4200 302.0000 1.0000
67.4300 295.0000 1.0000
67.4400 270.0000 1.0000
67.4500 301.0000 1.0000
67.4600 259.0000 1.0000
67.4700 270.0000 1.0000
67.4800 278.0000 1.0000
67.4900 272.0000 1.0000
67.5000 268.0000 1.0000
67.5100 273.0000 1.0000
67.5200 264.0000 1.0000
67.5300 263.0000 1.0000
67.5400 249.0000 1.0000
67.5500 283.0000 1.0000
67.5600 283.0000 1.0000
67.5700 267.0000 1.0000
67.5800 278.0000 1.0000
67.5900 257.0000 1.0000
67.6000 287.0000 1.0000
67.6100 289.0000 1.0000
67.6200 251.0000 1.0000
67.6300 267.0000 1.0000
67.6400 278.0000 1.0000
67.6500 263.0000 1.0000
67.6600 255.0000 1.0000
67.6700 283.0000 1.0000
67.6800 260.0000 1.0000
67.6900 256.0000 1.0000
67.7000 265.0000 1.0000
67.7100 281.0000 1.0000
67.7200 277.0000 1.0000
67.7300 283.0000 1.0000
67.7400 273.0000 1.0000
67.7500 254.0000 1.0000
67.7600 233.0000 1.0000
67.7700 261.0000 1.0000
67.7800 271.0000 1.0000
67.7900 260.0000 1.0000
67.8000 266.0000 1.0000
67.8100 239.0000 1.0000
67.8200 280.0000 1.0000
67.8300 276.0000 1.0000
67.8400 289.0000 1.0000
67.8500 289.0000 1.0000
67.8600 276.0000 1.0000
67.8700 298.0000 1.0000
67.8800 283.0000 1.0000
67.8900 286.0000 1.0000
67.9000 272.0000 1.0000
67.9100 288.0000 1.0000
67.9200 290.0000 1.0000
67.9300 264.0000 1.0000
67.9400 261.0000 1.0000
67.9500 252.0000 1.0000
67.9600 286.0000 1.0000
67.9700 269.0000 1.0000
67.9800 273.0000 1.0000
67.9900 270.0000 1.0000
68.0000 289.0000 1.0000
68.0100 275.0000 1.0000
68.0200 275.0000 1.0000
68.0300 275.0000 1.0000
68.0400 272.0000 1.0000
68.0500 297.0000 1.0000
68.0600 264.0000 1.0000
68.0700 258.0000 1.0000
68.0800 267.0000 1.0000
68.0900 275.0000 1.0000
68.1000 288.0000 1.0000
68.1100 247.0000 1.0000
68.1200 263.0000 1.0000
68.1300 258.0000 1.0000
68.1400 262.0000 1.0000
68.1500 270.0000 1.0000
68.1600 238.0000 1.0000
68.1700 255.0000 1.0000
68.1800 270.0000 1.0000
68.1900 278.0000 1.0000
68.2000 284.0000 1.0000
68.2100 262.0000 1.0000
68.2200 265.0000 1.0000
68.2300 282.0000 1.0000
68.2400 284.0000 1.0000
68.2500 266.0000 1.0000
68.2600 271.0000 1.0000
68.2700 264.0000 1.0000
68.2800 245.0000 1.0000
68.2900 276.0000 1.0000
68.3000 265.0000 1.0000
68.3100 244.0000 1.0000
68.3200 267.0000 1.0000
68.3300 255.0000 1.0000
68.3400 249.0000 1.0000
68.3500 272.0000 1.0000
68.3600 259.0000 1.0000
68.3700 288.0000 1.0000
68.3800 274.0000 1.0000
68.3900 282.0000 1.0000
68.4000 262.0000 1.0000
68.4100 286.0000 1.0000
68.4200 281.0000 1.0000
68.4300 256.0000 1.0000
68.4400 265.0000 1.0000
68.4500 263.0000 1.0000
68.4600 257.0000 1.0000
68.4700 247.0000 1.0000
68.4800 253.0000 1.0000
68.4900 267.0000 1.0000
68.5000 274.0000 1.0000
68.5100 266.0000 1.0000
68.5200 265.0000 1.0000
68.5300 265.0000 1.0000
68.5400 272.0000 1.0000
68.5500 257.0000 1.0000
68.5600 248.0000 1.0000
68.5700 279.0000 1.0000
68.5800 287.0000 1.0000
68.5900 257.0000 1.0000
68.6000 284.0000 1.0000
68.6100 261.0000 1.0000
68.6200 270.0000 1.0000
68.6300 257.0000 1.0000
68.6400 274.0000 1.0000
68.6500 263.0000 1.0000
68.6600 271.0000 1.0000
68.6700 281.0000 1.0000
68.6800 271.0000 1.0000
68.6900 235.0000 1.0000
68.7000 258.0000 1.0000
68.7100 290.0000 1.0000
68.7200 268.0000 1.0000
68.7300 250.0000 1.0000
68.7400 253.0000 1.0000
68.7500 255.0000 1.0000
68.7600 260.0000 1.0000
68.7700 284.0000 1.0000
68.7800 271.0000 1.0000
68.7900 261.0000 1.0000
68.8000 262.0000 1.0000
68.8100 271.0000 1.0000
68.8200 264.0000 1.0000
68.8300 283.0000 1.0000
68.8400 257.0000 1.0000
68.8500 247.0000 1.0000
68.8600 286.0000 1.0000
68.8700 275.0000 1.0000
68.8800 254.0000 1.0000
68.8900 278.0000 1.0000
68.9000 270.0000 1.0000
68.9100 282.0000 1.0000
68.9200 244.0000 1.0000
68.9300 251.0000 1.0000
68.9400 248.0000 1.0000
68.9500 250.0000 1.0000
68.9600 270.0000 1.0000
68.9700 266.0000 1.0000
68.9800 264.0000 1.0000
68.9900 265.0000 1.0000
69.0000 246.0000 1.0000
69.0100 267.0000 1.0000
69.0200 273.0000 1.0000
69.0300 243.0000 1.0000
69.0400 255.0000 1.0000
69.0500 241.0000 1.0000
69.0600 226.0000 1.0000
69.0700 250.0000 1.0000
69.0800 276.0000 1.0000
69.0900 267.0000 1.0000
69.1000 243.0000 1.0000
69.1100 280.0000 1.0000
69.1200 263.0000 1.0000
69.1300 235.0000 1.0000
69.1400 241.0000 1.0000
69.1500 262.0000 1.0000
69.1600 280.0000 1.0000
69.1700 254.0000 1.0000
69.1800 263.0000 1.0000
69.1900 240.0000 1.0000
69.2000 248.0000 1.0000
69.2100 259.0000 1.0000
69.2200 263.0000 1.0000
69.2300 230.0000 1.0000
69.2400 267.0000 1.0000
69.2500 238.0000 1.0000
69.2600 239.0000 1.0000
69.2700 270.0000 1.0000
69.2800 257.0000 1.0000
69.2900 254.0000 1.0000
69.3000 258.0000 1.0000
69.3100 268.0000 1.0000
69.3200 266.0000 1.0000
69.3300 266.0000 1.0000
69.3400 253.0000 1.0000
69.3500 259.0000 1.0000
69.3600 238.0000 1.0000
69.3700 245.0000 1.0000
69.3800 242.0000 1.0000
69.3900 252.0000 1.0000
69.4000 262.0000 1.0000
69.4100 278.0000 1.0000
69.4200 266.0000 1.0000
69.4300 224.0000 1.0000
69.4400 266.0000 1.0000
69.4500 268.0000 1.0000
69.4600 273.0000 1.0000
69.4700 262.0000 1.0000
69.4800 304.0000 1.0000
69.4900 247.0000 1.0000
69.5000 271.0000 1.0000
69.5100 260.0000 1.0000
69.5200 254.0000 1.0000
69.5300 260.0000 1.0000
69.5400 265.0000 1.0000
69.5500 275.0000 1.0000
69.5600 280.0000 1.0000
69.5700 246.0000 1.0000
69.5800 282.0000 1.0000
69.5900 258.0000 1.0000
69.6000 268.0000 1.0000
69.6100 272.0000 1.0000
69.6200 257.0000 1.0000
69.6300 259.0000 1.0000
69.6400 255.0000 1.0000
69.6500 258.0000 1.0000
69.6600 270.0000 1.0000
69.6700 247.0000 1.0000
69.6800 248.0000 1.0000
69.6900 235.0000 1.0000
69.7000 243.0000 1.0000
69.7100 241.0000 1.0000
69.7200 266.0000 1.0000
69.7300 270.0000 1.0000
69.7400 266.0000 1.0000
69.7500 244.0000 1.0000
69.7600 244.0000 1.0000
69.7700 248.0000 1.0000
69.7800 257.0000 1.0000
69.7900 262.0000 1.0000
69.8000 247.0000 1.0000
69.8100 262.0000 1.0000
69.8200 254.0000 1.0000
69.8300 260.0000 1.0000
69.8400 242.0000 1.0000
69.8500 262.0000 1.0000
69.8600 246.0000 1.0000
69.8700 263.0000 1.0000
69.8800 243.0000 1.0000
69.8900 256.0000 1.0000
69.9000 265.0000 1.0000
69.9100 252.0000 1.0000
69.9200 244.0000 1.0000
69.9300 256.0000 1.0000
69.9400 216.0000 1.0000
69.9500 245.0000 1.0000
69.9600 261.0000 1.0000
69.9700 265.0000 1.0000
69.9800 255.0000 1.0000
69.9900 257.0000 1.0000
70.0000 253.0000 1.0000
*RAS_INT_END
*RAS_TEMPERATURE_START
*RAS_TEMPERATURE_END
*RAS_DATA_END
