*RAS_DATA_START
*RAS_HEADER_START
*DISP_FMT_X "%.2f"
*DISP_FMT_Y "%.0f"
*DISP_FULLSCALE "15310.0000000000"
*DISP_LINE_COLOR "255.0000000000"
*DISP_LINE_STYLE "0.0000000000"
*DISP_LINE_WIDTH "0.2500000000"
*DISP_NOTE "測定データ-13"
*DISP_OFFSET_Y "0.0000000000"
*DISP_PEAKSEARCH_UNIT_Y "cps"
*DISP_RANGE_BOTTOM "0.0000000000"
*DISP_RANGE_LEFT "20.0000000000"
*DISP_RANGE_LOGCUTOFF "0.0100000000"
*DISP_RANGE_RIGHT "70.0000000000"
*DISP_RANGE_TOP "15310.0000000000"
*DISP_SCALE_MODE_Y "0.0000000000"
*DISP_TAB_NAME "2θ/θ"
*DISP_TITLE_Y "強度"
*DISP_UNIT_Y "cps"
*DISP_WINDOW_NAME "MSG_MACROENGINE"
*FILE_COMMENT " "
*FILE_MD5 ""
*FILE_MEMO " "
*FILE_OPERATOR "Administrator"
*FILE_SAMPLE " "
*FILE_TYPE "RAS_RAW"
*FILE_USERGROUP "システムマネージャ"
*FILE_VERSION "1.0000000000"
*HW_ATTACHMENT_ID "ATT0025"
*HW_ATTACHMENT_NAME "標準|Standard"
*HW_COUNTER_ID-0 "CUT0025"
*HW_COUNTER_ID-1 "CUT0020"
*HW_COUNTER_ID-2 "CUT0020"
*HW_COUNTER_ID-3 "CSL0021"
*HW_COUNTER_ID-4 "CMC0021"
*HW_COUNTER_NAME-0 "D/teX Ultra|D/teX Ultra"
*HW_COUNTER_NAME-1 "None|None"
*HW_COUNTER_NAME-2 "None|None"
*HW_COUNTER_NAME-3 "BBM|BBM"
*HW_COUNTER_NAME-4 "検出器モノクロメータ|Detector monochromator"
*HW_COUNTER_SELECT_NAME "D/teX Ultra|D/teX Ultra"
*HW_GONIOMETER_ID "GON0023"
*HW_GONIOMETER_NAME "SmartLab|SmartLab"
*HW_GONIOMETER_RADIUS-0 "90.0"
*HW_GONIOMETER_RADIUS-1 "114.0"
*HW_GONIOMETER_RADIUS-2 "190.0"
*HW_GONIOMETER_RADIUS-3 "300.0"
*HW_GONIOMETER_RADIUS-4 "187.0"
*HW_GONIOMETER_RADIUS-5 "300.0"
*HW_GONIOMETER_RADIUS-6 "113.0"
*HW_GONIOMETER_RADIUS-7 "331.0"
*HW_I_OPT_ID-0 "CBO0021"
*HW_I_OPT_ID-1 "ICR0023"
*HW_I_OPT_ID-2 "ISL0021"
*HW_I_OPT_ID-3 "ISO0021"
*HW_I_OPT_ID-4 "IAD0021"
*HW_I_OPT_ID-5 "IPR0001"
*HW_I_OPT_NAME-0 "CBOユニット|CBO unit"
*HW_I_OPT_NAME-1 "標準入射光学ユニット|Standard incident optical unit"
*HW_I_OPT_NAME-2 "標準入射スリットボックス|Standard incident slit box"
*HW_I_OPT_NAME-3 "入射平行スリット|Incident parallel slit"
*HW_I_OPT_NAME-4 "長手制限スリット|Length limiting slit"
*HW_I_OPT_NAME-5 "None|None"
*HW_R_ATTENUATER_AUTOMODE "0"
*HW_R_OPT_ID-0 "RSS0021"
*HW_R_OPT_ID-1 "RCR0023"
*HW_R_OPT_ID-2 "RSO0021"
*HW_R_OPT_ID-3 "RRS0021"
*HW_R_OPT_ID-4 "ATN0021"
*HW_R_OPT_ID-5 "RFL0021"
*HW_R_OPT_ID-6 "RAD0021"
*HW_R_OPT_NAME-0 "標準受光スリットボックス1|Standard receiving slit box # 1"
*HW_R_OPT_NAME-1 "標準受光光学ユニット1|Standard receiving unit # 1"
*HW_R_OPT_NAME-2 "標準受光光学ユニット2|Standard receiving optical unit # 2"
*HW_R_OPT_NAME-3 "標準受光スリットボックス2|Standard receiving slit box # 2"
*HW_R_OPT_NAME-4 "標準アッテネータ|Standard Attenuator"
*HW_R_OPT_NAME-5 "Cu Kβ|Cu K-beta"
*HW_R_OPT_NAME-6 "調整用受光スリット|Alignment receiving slit"
*HW_SAMPLE_HOLDER_ID "SMP0023"
*HW_SAMPLE_HOLDER_NAME "標準Zステージ|Standard Z stage"
*HW_XG_CURRENT_MAX "50"
*HW_XG_CURRENT_MIN "2"
*HW_XG_CURRENT_RESOLUTION "1"
*HW_XG_CURRENT_UNIT "mA"
*HW_XG_FOCUS "1mm x 10mm"
*HW_XG_FOCUS_TYPE "Normal"
*HW_XG_ID ""
*HW_XG_NAME "3kW 封入管(ID:1200)|3kW Sealed tube(ID:1200)"
*HW_XG_TARGET_ATOMIC_NUMBER "29.0000000000"
*HW_XG_TARGET_NAME "Cu"
*HW_XG_TYPE "Hermetic"
*HW_XG_VOLTAGE_MAX "60"
*HW_XG_VOLTAGE_MIN "20"
*HW_XG_VOLTAGE_RESOLUTION "1"
*HW_XG_VOLTAGE_UNIT "kV"
*HW_XG_WATT_MAX "1.500"
*HW_XG_WATT_UNIT "kW"
*HW_XG_WAVE_LENGTH_ALPHA1 "1.540593"
*HW_XG_WAVE_LENGTH_ALPHA2 "1.544414"
*HW_XG_WAVE_LENGTH_BETA "1.392250"
*MEAS_COND_AXIS_NAME-0 "2θ/θ"
*MEAS_COND_AXIS_NAME-1 "2θ"
*MEAS_COND_AXIS_NAME-2 "ω"
*MEAS_COND_AXIS_NAME-3 "Z"
*MEAS_COND_AXIS_NAME-4 "2θ/ω"
*MEAS_COND_AXIS_NAME-5 "θs"
*MEAS_COND_AXIS_NAME-6 "θd"
*MEAS_COND_AXIS_NAME-7 "Ts"
*MEAS_COND_AXIS_NAME-8 "CBO選択スリット"
*MEAS_COND_AXIS_NAME-9 "M"
*MEAS_COND_AXIS_NAME-10 "入射平行スリット"
*MEAS_COND_AXIS_NAME-11 "入射スリット"
*MEAS_COND_AXIS_NAME-12 ""
*MEAS_COND_AXIS_NAME-13 "Zs"
*MEAS_COND_AXIS_NAME-14 "入射光学素子"
*MEAS_COND_AXIS_NAME-15 "長手制限スリット"
*MEAS_COND_AXIS_NAME-16 "センタースリット"
*MEAS_COND_AXIS_NAME-17 "フィルター"
*MEAS_COND_AXIS_NAME-18 "受光スリット1"
*MEAS_COND_AXIS_NAME-19 "受光スリット2"
*MEAS_COND_AXIS_NAME-20 "受光光学素子"
*MEAS_COND_AXIS_NAME-21 "受光平行スリット"
*MEAS_COND_AXIS_NAME-22 "調整用受光スリット"
*MEAS_COND_AXIS_NAME-23 ""
*MEAS_COND_AXIS_NAME-24 ""
*MEAS_COND_AXIS_NAME-25 "Zd"
*MEAS_COND_AXIS_NAME-26 "アッテネータ"
*MEAS_COND_AXIS_NAME-27 "検出器モノクロメータ"
*MEAS_COND_AXIS_NAME-28 "モノクロメータスリット"
*MEAS_COND_AXIS_NAME-29 "プライマリビーム"
*MEAS_COND_AXIS_NAME-30 "PHA"
*MEAS_COND_AXIS_NAME_INTERNAL-0 "TwoThetaTheta"
*MEAS_COND_AXIS_NAME_INTERNAL-1 "TwoTheta"
*MEAS_COND_AXIS_NAME_INTERNAL-2 "Omega"
*MEAS_COND_AXIS_NAME_INTERNAL-3 "Z"
*MEAS_COND_AXIS_NAME_INTERNAL-4 "TwoThetaOmega"
*MEAS_COND_AXIS_NAME_INTERNAL-5 "ThetaS"
*MEAS_COND_AXIS_NAME_INTERNAL-6 "ThetaD"
*MEAS_COND_AXIS_NAME_INTERNAL-7 "Ts"
*MEAS_COND_AXIS_NAME_INTERNAL-8 "CBO"
*MEAS_COND_AXIS_NAME_INTERNAL-9 "CBO-M"
*MEAS_COND_AXIS_NAME_INTERNAL-10 "IncidentSollerSlit"
*MEAS_COND_AXIS_NAME_INTERNAL-11 "IncidentSlitBox"
*MEAS_COND_AXIS_NAME_INTERNAL-12 "IncidentSlitBox-_Axis"
*MEAS_COND_AXIS_NAME_INTERNAL-13 "Zs"
*MEAS_COND_AXIS_NAME_INTERNAL-14 "IncidentMonochromator"
*MEAS_COND_AXIS_NAME_INTERNAL-15 "IncidentAxdSlit"
*MEAS_COND_AXIS_NAME_INTERNAL-16 "CenterSlit"
*MEAS_COND_AXIS_NAME_INTERNAL-17 "Filter"
*MEAS_COND_AXIS_NAME_INTERNAL-18 "ReceivingSlitBox1"
*MEAS_COND_AXIS_NAME_INTERNAL-19 "ReceivingSlitBox2"
*MEAS_COND_AXIS_NAME_INTERNAL-20 "ReceivingOptics"
*MEAS_COND_AXIS_NAME_INTERNAL-21 "ReceivingSollerSlit"
*MEAS_COND_AXIS_NAME_INTERNAL-22 "ReceivingAxdSlit"
*MEAS_COND_AXIS_NAME_INTERNAL-23 "ReceivingSlitBox1-_Axis"
*MEAS_COND_AXIS_NAME_INTERNAL-24 "ReceivingSlitBox2-_Axis"
*MEAS_COND_AXIS_NAME_INTERNAL-25 "ReceivingSlitBox2-Zd"
*MEAS_COND_AXIS_NAME_INTERNAL-26 "Attenuator"
*MEAS_COND_AXIS_NAME_INTERNAL-27 "CounterMonochromator"
*MEAS_COND_AXIS_NAME_INTERNAL-28 "CounterSlit"
*MEAS_COND_AXIS_NAME_INTERNAL-29 "IncidentPrimary"
*MEAS_COND_AXIS_NAME_INTERNAL-30 "PHA"
*MEAS_COND_AXIS_NAME_MAGICNO-0 "83951616.0000000000"
*MEAS_COND_AXIS_NAME_MAGICNO-1 "268632064.0000000000"
*MEAS_COND_AXIS_NAME_MAGICNO-2 "268500992.0000000000"
*MEAS_COND_AXIS_NAME_MAGICNO-3 "285278208.0000000000"
*MEAS_COND_AXIS_NAME_MAGICNO-4 "83951616.0000000000"
*MEAS_COND_AXIS_NAME_MAGICNO-5 "131072.0000000000"
*MEAS_COND_AXIS_NAME_MAGICNO-6 "131072.0000000000"
*MEAS_COND_AXIS_NAME_MAGICNO-7 "318898176.0000000000"
*MEAS_COND_AXIS_NAME_MAGICNO-8 "20971521.0000000000"
*MEAS_COND_AXIS_NAME_MAGICNO-9 "285343744.0000000000"
*MEAS_COND_AXIS_NAME_MAGICNO-10 "20971521.0000000000"
*MEAS_COND_AXIS_NAME_MAGICNO-11 "22020097.0000000000"
*MEAS_COND_AXIS_NAME_MAGICNO-12 "25165824.0000000000"
*MEAS_COND_AXIS_NAME_MAGICNO-13 "318898176.0000000000"
*MEAS_COND_AXIS_NAME_MAGICNO-14 "1.0000000000"
*MEAS_COND_AXIS_NAME_MAGICNO-15 "20971521.0000000000"
*MEAS_COND_AXIS_NAME_MAGICNO-16 "20971521.0000000000"
*MEAS_COND_AXIS_NAME_MAGICNO-17 "20971521.0000000000"
*MEAS_COND_AXIS_NAME_MAGICNO-18 "23068673.0000000000"
*MEAS_COND_AXIS_NAME_MAGICNO-19 "23068673.0000000000"
*MEAS_COND_AXIS_NAME_MAGICNO-20 "20971521.0000000000"
*MEAS_COND_AXIS_NAME_MAGICNO-21 "20971521.0000000000"
*MEAS_COND_AXIS_NAME_MAGICNO-22 "20971521.0000000000"
*MEAS_COND_AXIS_NAME_MAGICNO-23 "25165824.0000000000"
*MEAS_COND_AXIS_NAME_MAGICNO-24 "25165824.0000000000"
*MEAS_COND_AXIS_NAME_MAGICNO-25 "285343744.0000000000"
*MEAS_COND_AXIS_NAME_MAGICNO-26 "17301505.0000000000"
*MEAS_COND_AXIS_NAME_MAGICNO-27 "20971521.0000000000"
*MEAS_COND_AXIS_NAME_MAGICNO-28 "20971521.0000000000"
*MEAS_COND_AXIS_NAME_MAGICNO-29 "20971521.0000000000"
*MEAS_COND_AXIS_NAME_MAGICNO-30 "0.0000000000"
*MEAS_COND_AXIS_OFFSET-0 "-"
*MEAS_COND_AXIS_OFFSET-1 "-0.0310000000"
*MEAS_COND_AXIS_OFFSET-2 "0.3957000000"
*MEAS_COND_AXIS_OFFSET-3 "-"
*MEAS_COND_AXIS_OFFSET-4 "-"
*MEAS_COND_AXIS_OFFSET-5 "0.3957000000"
*MEAS_COND_AXIS_OFFSET-6 "-0.4267000000"
*MEAS_COND_AXIS_OFFSET-7 "-"
*MEAS_COND_AXIS_OFFSET-8 "-"
*MEAS_COND_AXIS_OFFSET-9 "-"
*MEAS_COND_AXIS_OFFSET-10 "-"
*MEAS_COND_AXIS_OFFSET-11 "-"
*MEAS_COND_AXIS_OFFSET-12 "-"
*MEAS_COND_AXIS_OFFSET-13 "-"
*MEAS_COND_AXIS_OFFSET-14 "-"
*MEAS_COND_AXIS_OFFSET-15 "-"
*MEAS_COND_AXIS_OFFSET-16 "-"
*MEAS_COND_AXIS_OFFSET-17 "-"
*MEAS_COND_AXIS_OFFSET-18 "-"
*MEAS_COND_AXIS_OFFSET-19 "-"
*MEAS_COND_AXIS_OFFSET-20 "-"
*MEAS_COND_AXIS_OFFSET-21 "-"
*MEAS_COND_AXIS_OFFSET-22 "-"
*MEAS_COND_AXIS_OFFSET-23 "-"
*MEAS_COND_AXIS_OFFSET-24 "-"
*MEAS_COND_AXIS_OFFSET-25 "-"
*MEAS_COND_AXIS_OFFSET-26 "-"
*MEAS_COND_AXIS_OFFSET-27 "-"
*MEAS_COND_AXIS_OFFSET-28 "-"
*MEAS_COND_AXIS_OFFSET-29 "-"
*MEAS_COND_AXIS_OFFSET-30 "-"
*MEAS_COND_AXIS_POSITION-0 "0.0000000000"
*MEAS_COND_AXIS_POSITION-1 "0.0000000000"
*MEAS_COND_AXIS_POSITION-2 "0.0000000000"
*MEAS_COND_AXIS_POSITION-3 "-2.9656400000"
*MEAS_COND_AXIS_POSITION-4 "0.0000000000"
*MEAS_COND_AXIS_POSITION-5 "0.0000000000"
*MEAS_COND_AXIS_POSITION-6 "0.0000000000"
*MEAS_COND_AXIS_POSITION-7 "-0.7498700000"
*MEAS_COND_AXIS_POSITION-8 "BB"
*MEAS_COND_AXIS_POSITION-9 "0.0000000000"
*MEAS_COND_AXIS_POSITION-10 "Soller_slit_5.0deg"
*MEAS_COND_AXIS_POSITION-11 "2/3deg"
*MEAS_COND_AXIS_POSITION-12 "2.2088000000"
*MEAS_COND_AXIS_POSITION-13 "-0.6412500000"
*MEAS_COND_AXIS_POSITION-14 "0.0000000000"
*MEAS_COND_AXIS_POSITION-15 "10.0mm"
*MEAS_COND_AXIS_POSITION-16 "None"
*MEAS_COND_AXIS_POSITION-17 "Cu_K-beta"
*MEAS_COND_AXIS_POSITION-18 "13.000mm"
*MEAS_COND_AXIS_POSITION-19 "13.000mm"
*MEAS_COND_AXIS_POSITION-20 "No_unit"
*MEAS_COND_AXIS_POSITION-21 "Soller_slit_5.0deg"
*MEAS_COND_AXIS_POSITION-22 "None"
*MEAS_COND_AXIS_POSITION-23 "13.0000000000"
*MEAS_COND_AXIS_POSITION-24 "13.0000000000"
*MEAS_COND_AXIS_POSITION-25 "0.0281300000"
*MEAS_COND_AXIS_POSITION-26 "Open"
*MEAS_COND_AXIS_POSITION-27 "None"
*MEAS_COND_AXIS_POSITION-28 "None"
*MEAS_COND_AXIS_POSITION-29 "None"
*MEAS_COND_AXIS_POSITION-30 "38.0000000000"
*MEAS_COND_AXIS_UNIT-0 "deg"
*MEAS_COND_AXIS_UNIT-1 "deg"
*MEAS_COND_AXIS_UNIT-2 "deg"
*MEAS_COND_AXIS_UNIT-3 "mm"
*MEAS_COND_AXIS_UNIT-4 "deg"
*MEAS_COND_AXIS_UNIT-5 "deg"
*MEAS_COND_AXIS_UNIT-6 "deg"
*MEAS_COND_AXIS_UNIT-7 "mm"
*MEAS_COND_AXIS_UNIT-8 ""
*MEAS_COND_AXIS_UNIT-9 "pulse"
*MEAS_COND_AXIS_UNIT-10 ""
*MEAS_COND_AXIS_UNIT-11 ""
*MEAS_COND_AXIS_UNIT-12 "mm"
*MEAS_COND_AXIS_UNIT-13 "mm"
*MEAS_COND_AXIS_UNIT-14 ""
*MEAS_COND_AXIS_UNIT-15 ""
*MEAS_COND_AXIS_UNIT-16 ""
*MEAS_COND_AXIS_UNIT-17 ""
*MEAS_COND_AXIS_UNIT-18 ""
*MEAS_COND_AXIS_UNIT-19 ""
*MEAS_COND_AXIS_UNIT-20 ""
*MEAS_COND_AXIS_UNIT-21 ""
*MEAS_COND_AXIS_UNIT-22 ""
*MEAS_COND_AXIS_UNIT-23 "mm"
*MEAS_COND_AXIS_UNIT-24 "mm"
*MEAS_COND_AXIS_UNIT-25 "mm"
*MEAS_COND_AXIS_UNIT-26 ""
*MEAS_COND_AXIS_UNIT-27 ""
*MEAS_COND_AXIS_UNIT-28 ""
*MEAS_COND_AXIS_UNIT-29 ""
*MEAS_COND_AXIS_UNIT-30 "div"
*MEAS_COND_COUNTER_CNTLOSS_CORR "0.0000000000"
*MEAS_COND_COUNTER_PHABASE "38.0000000000"
*MEAS_COND_COUNTER_PHAWINDOW "16.0000000000"
*MEAS_COND_COUNTER_PHA_UNIT "div"
*MEAS_COND_COUNTER_TAUDIFF "30.0000000000"
*MEAS_COND_COUNTER_TAUINT "0.0000000000"
*MEAS_COND_IRRADIATION_MODE "OFF"
*MEAS_COND_IRRADIATION_WIDTH ""
*MEAS_COND_OPT_ATTR "集中法"
*MEAS_COND_OPT_NAME "@集中法"
*MEAS_COND_UNSYMMETRIC_MODE "OFF"
*MEAS_COND_XG_CURRENT "30.0000000000"
*MEAS_COND_XG_VOLTAGE "40.0000000000"
*MEAS_COND_XG_WAVE_TYPE "Ka"
*MEAS_DATA_COUNT "5001.0000000000"
*MEAS_SCAN_AXIS_X "2θ/θ"
*MEAS_SCAN_AXIS_X_INTERNAL "TwoThetaTheta"
*MEAS_SCAN_END_TIME "02/14/24 21:48:04"
*MEAS_SCAN_MODE "CONTINUOUS"
*MEAS_SCAN_MONITOR "0"
*MEAS_SCAN_RESOLUTION_X "0.0002"
*MEAS_SCAN_SPEED "2.5"
*MEAS_SCAN_SPEED_UNIT "deg/min"
*MEAS_SCAN_START "20.0000000000"
*MEAS_SCAN_START_TIME "02/14/24 21:26:40"
*MEAS_SCAN_STEP "0.0100000000"
*MEAS_SCAN_STOP "70.0000000000"
*MEAS_SCAN_UNIT_X "deg"
*MEAS_SCAN_UNIT_Y "counts"
*RAS_HEADER_END
*RAS_INT_START
20.0000 737.0000 1.0000
20.0100 761.0000 1.0000
20.0200 772.0000 1.0000
20.0300 757.0000 1.0000
20.0400 725.0000 1.0000
20.0500 800.0000 1.0000
20.0600 727.0000 1.0000
20.0700 765.0000 1.0000
20.0800 754.0000 1.0000
20.0900 747.0000 1.0000
20.1000 763.0000 1.0000
20.1100 759.0000 1.0000
20.1200 744.0000 1.0000
20.1300 791.0000 1.0000
20.1400 743.0000 1.0000
20.1500 777.0000 1.0000
20.1600 764.0000 1.0000
20.1700 750.0000 1.0000
20.1800 800.0000 1.0000
20.1900 758.0000 1.0000
20.2000 726.0000 1.0000
20.2100 734.0000 1.0000
20.2200 753.0000 1.0000
20.2300 754.0000 1.0000
20.2400 743.0000 1.0000
20.2500 768.0000 1.0000
20.2600 792.0000 1.0000
20.2700 718.0000 1.0000
20.2800 733.0000 1.0000
20.2900 764.0000 1.0000
20.3000 764.0000 1.0000
20.3100 754.0000 1.0000
20.3200 786.0000 1.0000
20.3300 798.0000 1.0000
20.3400 741.0000 1.0000
20.3500 753.0000 1.0000
20.3600 733.0000 1.0000
20.3700 777.0000 1.0000
20.3800 758.0000 1.0000
20.3900 834.0000 1.0000
20.4000 745.0000 1.0000
20.4100 782.0000 1.0000
20.4200 732.0000 1.0000
20.4300 736.0000 1.0000
20.4400 757.0000 1.0000
20.4500 743.0000 1.0000
20.4600 779.0000 1.0000
20.4700 757.0000 1.0000
20.4800 739.0000 1.0000
20.4900 752.0000 1.0000
20.5000 761.0000 1.0000
20.5100 781.0000 1.0000
20.5200 676.0000 1.0000
20.5300 743.0000 1.0000
20.5400 718.0000 1.0000
20.5500 788.0000 1.0000
20.5600 762.0000 1.0000
20.5700 779.0000 1.0000
20.5800 716.0000 1.0000
20.5900 734.0000 1.0000
20.6000 734.0000 1.0000
20.6100 725.0000 1.0000
20.6200 745.0000 1.0000
20.6300 768.0000 1.0000
20.6400 754.0000 1.0000
20.6500 747.0000 1.0000
20.6600 796.0000 1.0000
20.6700 757.0000 1.0000
20.6800 753.0000 1.0000
20.6900 761.0000 1.0000
20.7000 753.0000 1.0000
20.7100 714.0000 1.0000
20.7200 755.0000 1.0000
20.7300 762.0000 1.0000
20.7400 813.0000 1.0000
20.7500 731.0000 1.0000
20.7600 751.0000 1.0000
20.7700 761.0000 1.0000
20.7800 750.0000 1.0000
20.7900 765.0000 1.0000
20.8000 762.0000 1.0000
20.8100 772.0000 1.0000
20.8200 777.0000 1.0000
20.8300 738.0000 1.0000
20.8400 754.0000 1.0000
20.8500 761.0000 1.0000
20.8600 751.0000 1.0000
20.8700 792.0000 1.0000
20.8800 723.0000 1.0000
20.8900 744.0000 1.0000
20.9000 751.0000 1.0000
20.9100 739.0000 1.0000
20.9200 751.0000 1.0000
20.9300 734.0000 1.0000
20.9400 781.0000 1.0000
20.9500 716.0000 1.0000
20.9600 742.0000 1.0000
20.9700 715.0000 1.0000
20.9800 755.0000 1.0000
20.9900 752.0000 1.0000
21.0000 735.0000 1.0000
21.0100 752.0000 1.0000
21.0200 729.0000 1.0000
21.0300 746.0000 1.0000
21.0400 731.0000 1.0000
21.0500 723.0000 1.0000
21.0600 747.0000 1.0000
21.0700 734.0000 1.0000
21.0800 704.0000 1.0000
21.0900 735.0000 1.0000
21.1000 760.0000 1.0000
21.1100 735.0000 1.0000
21.1200 762.0000 1.0000
21.1300 724.0000 1.0000
21.1400 731.0000 1.0000
21.1500 775.0000 1.0000
21.1600 764.0000 1.0000
21.1700 746.0000 1.0000
21.1800 777.0000 1.0000
21.1900 709.0000 1.0000
21.2000 753.0000 1.0000
21.2100 728.0000 1.0000
21.2200 767.0000 1.0000
21.2300 774.0000 1.0000
21.2400 744.0000 1.0000
21.2500 719.0000 1.0000
21.2600 729.0000 1.0000
21.2700 715.0000 1.0000
21.2800 770.0000 1.0000
21.2900 761.0000 1.0000
21.3000 724.0000 1.0000
21.3100 788.0000 1.0000
21.3200 756.0000 1.0000
21.3300 751.0000 1.0000
21.3400 703.0000 1.0000
21.3500 751.0000 1.0000
21.3600 689.0000 1.0000
21.3700 778.0000 1.0000
21.3800 744.0000 1.0000
21.3900 697.0000 1.0000
21.4000 765.0000 1.0000
21.4100 706.0000 1.0000
21.4200 715.0000 1.0000
21.4300 756.0000 1.0000
21.4400 747.0000 1.0000
21.4500 758.0000 1.0000
21.4600 716.0000 1.0000
21.4700 739.0000 1.0000
21.4800 753.0000 1.0000
21.4900 751.0000 1.0000
21.5000 746.0000 1.0000
21.5100 762.0000 1.0000
21.5200 756.0000 1.0000
21.5300 708.0000 1.0000
21.5400 753.0000 1.0000
21.5500 779.0000 1.0000
21.5600 755.0000 1.0000
21.5700 700.0000 1.0000
21.5800 734.0000 1.0000
21.5900 750.0000 1.0000
21.6000 770.0000 1.0000
21.6100 693.0000 1.0000
21.6200 714.0000 1.0000
21.6300 727.0000 1.0000
21.6400 702.0000 1.0000
21.6500 792.0000 1.0000
21.6600 779.0000 1.0000
21.6700 721.0000 1.0000
21.6800 741.0000 1.0000
21.6900 741.0000 1.0000
21.7000 732.0000 1.0000
21.7100 730.0000 1.0000
21.7200 763.0000 1.0000
21.7300 750.0000 1.0000
21.7400 738.0000 1.0000
21.7500 764.0000 1.0000
21.7600 733.0000 1.0000
21.7700 758.0000 1.0000
21.7800 738.0000 1.0000
21.7900 696.0000 1.0000
21.8000 733.0000 1.0000
21.8100 780.0000 1.0000
21.8200 729.0000 1.0000
21.8300 774.0000 1.0000
21.8400 732.0000 1.0000
21.8500 744.0000 1.0000
21.8600 795.0000 1.0000
21.8700 735.0000 1.0000
21.8800 752.0000 1.0000
21.8900 721.0000 1.0000
21.9000 707.0000 1.0000
21.9100 750.0000 1.0000
21.9200 698.0000 1.0000
21.9300 727.0000 1.0000
21.9400 704.0000 1.0000
21.9500 742.0000 1.0000
21.9600 753.0000 1.0000
21.9700 778.0000 1.0000
21.9800 764.0000 1.0000
21.9900 704.0000 1.0000
22.0000 724.0000 1.0000
22.0100 743.0000 1.0000
22.0200 747.0000 1.0000
22.0300 738.0000 1.0000
22.0400 748.0000 1.0000
22.0500 760.0000 1.0000
22.0600 727.0000 1.0000
22.0700 734.0000 1.0000
22.0800 759.0000 1.0000
22.0900 740.0000 1.0000
22.1000 796.0000 1.0000
22.1100 751.0000 1.0000
22.1200 740.0000 1.0000
22.1300 687.0000 1.0000
22.1400 741.0000 1.0000
22.1500 738.0000 1.0000
22.1600 745.0000 1.0000
22.1700 724.0000 1.0000
22.1800 763.0000 1.0000
22.1900 761.0000 1.0000
22.2000 729.0000 1.0000
22.2100 720.0000 1.0000
22.2200 764.0000 1.0000
22.2300 750.0000 1.0000
22.2400 697.0000 1.0000
22.2500 686.0000 1.0000
22.2600 764.0000 1.0000
22.2700 710.0000 1.0000
22.2800 712.0000 1.0000
22.2900 769.0000 1.0000
22.3000 775.0000 1.0000
22.3100 768.0000 1.0000
22.3200 766.0000 1.0000
22.3300 744.0000 1.0000
22.3400 769.0000 1.0000
22.3500 720.0000 1.0000
22.3600 706.0000 1.0000
22.3700 711.0000 1.0000
22.3800 717.0000 1.0000
22.3900 747.0000 1.0000
22.4000 742.0000 1.0000
22.4100 765.0000 1.0000
22.4200 774.0000 1.0000
22.4300 735.0000 1.0000
22.4400 723.0000 1.0000
22.4500 730.0000 1.0000
22.4600 748.0000 1.0000
22.4700 764.0000 1.0000
22.4800 747.0000 1.0000
22.4900 733.0000 1.0000
22.5000 727.0000 1.0000
22.5100 716.0000 1.0000
22.5200 755.0000 1.0000
22.5300 747.0000 1.0000
22.5400 749.0000 1.0000
22.5500 711.0000 1.0000
22.5600 724.0000 1.0000
22.5700 716.0000 1.0000
22.5800 736.0000 1.0000
22.5900 708.0000 1.0000
22.6000 729.0000 1.0000
22.6100 743.0000 1.0000
22.6200 769.0000 1.0000
22.6300 731.0000 1.0000
22.6400 766.0000 1.0000
22.6500 719.0000 1.0000
22.6600 739.0000 1.0000
22.6700 736.0000 1.0000
22.6800 751.0000 1.0000
22.6900 714.0000 1.0000
22.7000 749.0000 1.0000
22.7100 739.0000 1.0000
22.7200 767.0000 1.0000
22.7300 727.0000 1.0000
22.7400 752.0000 1.0000
22.7500 725.0000 1.0000
22.7600 718.0000 1.0000
22.7700 707.0000 1.0000
22.7800 721.0000 1.0000
22.7900 728.0000 1.0000
22.8000 709.0000 1.0000
22.8100 760.0000 1.0000
22.8200 691.0000 1.0000
22.8300 730.0000 1.0000
22.8400 709.0000 1.0000
22.8500 692.0000 1.0000
22.8600 708.0000 1.0000
22.8700 750.0000 1.0000
22.8800 734.0000 1.0000
22.8900 749.0000 1.0000
22.9000 727.0000 1.0000
22.9100 729.0000 1.0000
22.9200 748.0000 1.0000
22.9300 702.0000 1.0000
22.9400 748.0000 1.0000
22.9500 702.0000 1.0000
22.9600 722.0000 1.0000
22.9700 728.0000 1.0000
22.9800 739.0000 1.0000
22.9900 708.0000 1.0000
23.0000 700.0000 1.0000
23.0100 732.0000 1.0000
23.0200 737.0000 1.0000
23.0300 707.0000 1.0000
23.0400 722.0000 1.0000
23.0500 758.0000 1.0000
23.0600 694.0000 1.0000
23.0700 724.0000 1.0000
23.0800 750.0000 1.0000
23.0900 744.0000 1.0000
23.1000 690.0000 1.0000
23.1100 769.0000 1.0000
23.1200 743.0000 1.0000
23.1300 710.0000 1.0000
23.1400 727.0000 1.0000
23.1500 708.0000 1.0000
23.1600 735.0000 1.0000
23.1700 763.0000 1.0000
23.1800 737.0000 1.0000
23.1900 770.0000 1.0000
23.2000 708.0000 1.0000
23.2100 678.0000 1.0000
23.2200 724.0000 1.0000
23.2300 724.0000 1.0000
23.2400 759.0000 1.0000
23.2500 725.0000 1.0000
23.2600 719.0000 1.0000
23.2700 755.0000 1.0000
23.2800 702.0000 1.0000
23.2900 709.0000 1.0000
23.3000 712.0000 1.0000
23.3100 729.0000 1.0000
23.3200 724.0000 1.0000
23.3300 736.0000 1.0000
23.3400 740.0000 1.0000
23.3500 726.0000 1.0000
23.3600 677.0000 1.0000
23.3700 694.0000 1.0000
23.3800 711.0000 1.0000
23.3900 739.0000 1.0000
23.4000 731.0000 1.0000
23.4100 780.0000 1.0000
23.4200 724.0000 1.0000
23.4300 755.0000 1.0000
23.4400 749.0000 1.0000
23.4500 781.0000 1.0000
23.4600 730.0000 1.0000
23.4700 772.0000 1.0000
23.4800 734.0000 1.0000
23.4900 752.0000 1.0000
23.5000 726.0000 1.0000
23.5100 714.0000 1.0000
23.5200 702.0000 1.0000
23.5300 743.0000 1.0000
23.5400 765.0000 1.0000
23.5500 726.0000 1.0000
23.5600 704.0000 1.0000
23.5700 709.0000 1.0000
23.5800 702.0000 1.0000
23.5900 732.0000 1.0000
23.6000 751.0000 1.0000
23.6100 719.0000 1.0000
23.6200 690.0000 1.0000
23.6300 697.0000 1.0000
23.6400 703.0000 1.0000
23.6500 744.0000 1.0000
23.6600 733.0000 1.0000
23.6700 736.0000 1.0000
23.6800 729.0000 1.0000
23.6900 726.0000 1.0000
23.7000 745.0000 1.0000
23.7100 717.0000 1.0000
23.7200 737.0000 1.0000
23.7300 718.0000 1.0000
23.7400 694.0000 1.0000
23.7500 652.0000 1.0000
23.7600 680.0000 1.0000
23.7700 733.0000 1.0000
23.7800 710.0000 1.0000
23.7900 709.0000 1.0000
23.8000 717.0000 1.0000
23.8100 751.0000 1.0000
23.8200 753.0000 1.0000
23.8300 740.0000 1.0000
23.8400 743.0000 1.0000
23.8500 730.0000 1.0000
23.8600 750.0000 1.0000
23.8700 734.0000 1.0000
23.8800 754.0000 1.0000
23.8900 724.0000 1.0000
23.9000 693.0000 1.0000
23.9100 730.0000 1.0000
23.9200 753.0000 1.0000
23.9300 738.0000 1.0000
23.9400 769.0000 1.0000
23.9500 781.0000 1.0000
23.9600 790.0000 1.0000
23.9700 786.0000 1.0000
23.9800 788.0000 1.0000
23.9900 746.0000 1.0000
24.0000 736.0000 1.0000
24.0100 784.0000 1.0000
24.0200 775.0000 1.0000
24.0300 797.0000 1.0000
24.0400 795.0000 1.0000
24.0500 812.0000 1.0000
24.0600 819.0000 1.0000
24.0700 784.0000 1.0000
24.0800 801.0000 1.0000
24.0900 788.0000 1.0000
24.1000 811.0000 1.0000
24.1100 781.0000 1.0000
24.1200 822.0000 1.0000
24.1300 822.0000 1.0000
24.1400 762.0000 1.0000
24.1500 739.0000 1.0000
24.1600 740.0000 1.0000
24.1700 742.0000 1.0000
24.1800 767.0000 1.0000
24.1900 737.0000 1.0000
24.2000 734.0000 1.0000
24.2100 710.0000 1.0000
24.2200 732.0000 1.0000
24.2300 815.0000 1.0000
24.2400 748.0000 1.0000
24.2500 743.0000 1.0000
24.2600 742.0000 1.0000
24.2700 786.0000 1.0000
24.2800 788.0000 1.0000
24.2900 735.0000 1.0000
24.3000 736.0000 1.0000
24.3100 736.0000 1.0000
24.3200 714.0000 1.0000
24.3300 759.0000 1.0000
24.3400 753.0000 1.0000
24.3500 749.0000 1.0000
24.3600 731.0000 1.0000
24.3700 739.0000 1.0000
24.3800 692.0000 1.0000
24.3900 734.0000 1.0000
24.4000 714.0000 1.0000
24.4100 707.0000 1.0000
24.4200 710.0000 1.0000
24.4300 723.0000 1.0000
24.4400 734.0000 1.0000
24.4500 713.0000 1.0000
24.4600 746.0000 1.0000
24.4700 687.0000 1.0000
24.4800 747.0000 1.0000
24.4900 729.0000 1.0000
24.5000 726.0000 1.0000
24.5100 679.0000 1.0000
24.5200 689.0000 1.0000
24.5300 731.0000 1.0000
24.5400 701.0000 1.0000
24.5500 702.0000 1.0000
24.5600 736.0000 1.0000
24.5700 715.0000 1.0000
24.5800 698.0000 1.0000
24.5900 726.0000 1.0000
24.6000 681.0000 1.0000
24.6100 683.0000 1.0000
24.6200 696.0000 1.0000
24.6300 728.0000 1.0000
24.6400 736.0000 1.0000
24.6500 728.0000 1.0000
24.6600 708.0000 1.0000
24.6700 667.0000 1.0000
24.6800 696.0000 1.0000
24.6900 706.0000 1.0000
24.7000 722.0000 1.0000
24.7100 709.0000 1.0000
24.7200 750.0000 1.0000
24.7300 747.0000 1.0000
24.7400 692.0000 1.0000
24.7500 664.0000 1.0000
24.7600 716.0000 1.0000
24.7700 740.0000 1.0000
24.7800 721.0000 1.0000
24.7900 682.0000 1.0000
24.8000 684.0000 1.0000
24.8100 670.0000 1.0000
24.8200 721.0000 1.0000
24.8300 747.0000 1.0000
24.8400 693.0000 1.0000
24.8500 704.0000 1.0000
24.8600 670.0000 1.0000
24.8700 691.0000 1.0000
24.8800 730.0000 1.0000
24.8900 717.0000 1.0000
24.9000 665.0000 1.0000
24.9100 696.0000 1.0000
24.9200 664.0000 1.0000
24.9300 691.0000 1.0000
24.9400 719.0000 1.0000
24.9500 698.0000 1.0000
24.9600 724.0000 1.0000
24.9700 714.0000 1.0000
24.9800 730.0000 1.0000
24.9900 762.0000 1.0000
25.0000 736.0000 1.0000
25.0100 719.0000 1.0000
25.0200 705.0000 1.0000
25.0300 706.0000 1.0000
25.0400 720.0000 1.0000
25.0500 682.0000 1.0000
25.0600 705.0000 1.0000
25.0700 687.0000 1.0000
25.0800 672.0000 1.0000
25.0900 670.0000 1.0000
25.1000 704.0000 1.0000
25.1100 689.0000 1.0000
25.1200 730.0000 1.0000
25.1300 679.0000 1.0000
25.1400 743.0000 1.0000
25.1500 743.0000 1.0000
25.1600 703.0000 1.0000
25.1700 698.0000 1.0000
25.1800 680.0000 1.0000
25.1900 709.0000 1.0000
25.2000 705.0000 1.0000
25.2100 682.0000 1.0000
25.2200 703.0000 1.0000
25.2300 706.0000 1.0000
25.2400 710.0000 1.0000
25.2500 711.0000 1.0000
25.2600 659.0000 1.0000
25.2700 676.0000 1.0000
25.2800 713.0000 1.0000
25.2900 639.0000 1.0000
25.3000 706.0000 1.0000
25.3100 675.0000 1.0000
25.3200 658.0000 1.0000
25.3300 690.0000 1.0000
25.3400 734.0000 1.0000
25.3500 711.0000 1.0000
25.3600 703.0000 1.0000
25.3700 725.0000 1.0000
25.3800 699.0000 1.0000
25.3900 693.0000 1.0000
25.4000 703.0000 1.0000
25.4100 690.0000 1.0000
25.4200 704.0000 1.0000
25.4300 681.0000 1.0000
25.4400 693.0000 1.0000
25.4500 652.0000 1.0000
25.4600 647.0000 1.0000
25.4700 730.0000 1.0000
25.4800 727.0000 1.0000
25.4900 736.0000 1.0000
25.5000 730.0000 1.0000
25.5100 688.0000 1.0000
25.5200 661.0000 1.0000
25.5300 684.0000 1.0000
25.5400 712.0000 1.0000
25.5500 667.0000 1.0000
25.5600 683.0000 1.0000
25.5700 676.0000 1.0000
25.5800 740.0000 1.0000
25.5900 729.0000 1.0000
25.6000 730.0000 1.0000
25.6100 714.0000 1.0000
25.6200 689.0000 1.0000
25.6300 711.0000 1.0000
25.6400 671.0000 1.0000
25.6500 700.0000 1.0000
25.6600 710.0000 1.0000
25.6700 697.0000 1.0000
25.6800 704.0000 1.0000
25.6900 673.0000 1.0000
25.7000 692.0000 1.0000
25.7100 678.0000 1.0000
25.7200 700.0000 1.0000
25.7300 694.0000 1.0000
25.7400 735.0000 1.0000
25.7500 674.0000 1.0000
25.7600 709.0000 1.0000
25.7700 711.0000 1.0000
25.7800 690.0000 1.0000
25.7900 681.0000 1.0000
25.8000 720.0000 1.0000
25.8100 676.0000 1.0000
25.8200 684.0000 1.0000
25.8300 722.0000 1.0000
25.8400 700.0000 1.0000
25.8500 760.0000 1.0000
25.8600 713.0000 1.0000
25.8700 733.0000 1.0000
25.8800 700.0000 1.0000
25.8900 739.0000 1.0000
25.9000 762.0000 1.0000
25.9100 729.0000 1.0000
25.9200 758.0000 1.0000
25.9300 762.0000 1.0000
25.9400 799.0000 1.0000
25.9500 748.0000 1.0000
25.9600 775.0000 1.0000
25.9700 715.0000 1.0000
25.9800 718.0000 1.0000
25.9900 742.0000 1.0000
26.0000 701.0000 1.0000
26.0100 740.0000 1.0000
26.0200 780.0000 1.0000
26.0300 736.0000 1.0000
26.0400 783.0000 1.0000
26.0500 718.0000 1.0000
26.0600 751.0000 1.0000
26.0700 810.0000 1.0000
26.0800 801.0000 1.0000
26.0900 787.0000 1.0000
26.1000 764.0000 1.0000
26.1100 811.0000 1.0000
26.1200 814.0000 1.0000
26.1300 810.0000 1.0000
26.1400 806.0000 1.0000
26.1500 866.0000 1.0000
26.1600 862.0000 1.0000
26.1700 855.0000 1.0000
26.1800 857.0000 1.0000
26.1900 875.0000 1.0000
26.2000 880.0000 1.0000
26.2100 871.0000 1.0000
26.2200 917.0000 1.0000
26.2300 928.0000 1.0000
26.2400 968.0000 1.0000
26.2500 1000.0000 1.0000
26.2600 953.0000 1.0000
26.2700 1013.0000 1.0000
26.2800 1038.0000 1.0000
26.2900 1066.0000 1.0000
26.3000 1100.0000 1.0000
26.3100 1138.0000 1.0000
26.3200 1125.0000 1.0000
26.3300 1202.0000 1.0000
26.3400 1161.0000 1.0000
26.3500 1282.0000 1.0000
26.3600 1288.0000 1.0000
26.3700 1279.0000 1.0000
26.3800 1362.0000 1.0000
26.3900 1377.0000 1.0000
26.4000 1378.0000 1.0000
26.4100 1379.0000 1.0000
26.4200 1431.0000 1.0000
26.4300 1382.0000 1.0000
26.4400 1416.0000 1.0000
26.4500 1383.0000 1.0000
26.4600 1461.0000 1.0000
26.4700 1375.0000 1.0000
26.4800 1330.0000 1.0000
26.4900 1383.0000 1.0000
26.5000 1330.0000 1.0000
26.5100 1316.0000 1.0000
26.5200 1245.0000 1.0000
26.5300 1192.0000 1.0000
26.5400 1231.0000 1.0000
26.5500 1149.0000 1.0000
26.5600 1149.0000 1.0000
26.5700 1147.0000 1.0000
26.5800 1079.0000 1.0000
26.5900 1080.0000 1.0000
26.6000 1015.0000 1.0000
26.6100 1016.0000 1.0000
26.6200 970.0000 1.0000
26.6300 923.0000 1.0000
26.6400 935.0000 1.0000
26.6500 917.0000 1.0000
26.6600 935.0000 1.0000
26.6700 902.0000 1.0000
26.6800 891.0000 1.0000
26.6900 836.0000 1.0000
26.7000 828.0000 1.0000
26.7100 818.0000 1.0000
26.7200 857.0000 1.0000
26.7300 844.0000 1.0000
26.7400 805.0000 1.0000
26.7500 831.0000 1.0000
26.7600 801.0000 1.0000
26.7700 743.0000 1.0000
26.7800 766.0000 1.0000
26.7900 785.0000 1.0000
26.8000 753.0000 1.0000
26.8100 722.0000 1.0000
26.8200 746.0000 1.0000
26.8300 749.0000 1.0000
26.8400 716.0000 1.0000
26.8500 714.0000 1.0000
26.8600 758.0000 1.0000
26.8700 764.0000 1.0000
26.8800 765.0000 1.0000
26.8900 729.0000 1.0000
26.9000 735.0000 1.0000
26.9100 750.0000 1.0000
26.9200 696.0000 1.0000
26.9300 682.0000 1.0000
26.9400 705.0000 1.0000
26.9500 746.0000 1.0000
26.9600 686.0000 1.0000
26.9700 720.0000 1.0000
26.9800 711.0000 1.0000
26.9900 691.0000 1.0000
27.0000 688.0000 1.0000
27.0100 705.0000 1.0000
27.0200 650.0000 1.0000
27.0300 671.0000 1.0000
27.0400 644.0000 1.0000
27.0500 674.0000 1.0000
27.0600 658.0000 1.0000
27.0700 655.0000 1.0000
27.0800 666.0000 1.0000
27.0900 658.0000 1.0000
27.1000 650.0000 1.0000
27.1100 672.0000 1.0000
27.1200 653.0000 1.0000
27.1300 717.0000 1.0000
27.1400 644.0000 1.0000
27.1500 672.0000 1.0000
27.1600 684.0000 1.0000
27.1700 665.0000 1.0000
27.1800 667.0000 1.0000
27.1900 681.0000 1.0000
27.2000 660.0000 1.0000
27.2100 677.0000 1.0000
27.2200 701.0000 1.0000
27.2300 637.0000 1.0000
27.2400 643.0000 1.0000
27.2500 628.0000 1.0000
27.2600 667.0000 1.0000
27.2700 635.0000 1.0000
27.2800 618.0000 1.0000
27.2900 645.0000 1.0000
27.3000 679.0000 1.0000
27.3100 620.0000 1.0000
27.3200 683.0000 1.0000
27.3300 647.0000 1.0000
27.3400 629.0000 1.0000
27.3500 595.0000 1.0000
27.3600 600.0000 1.0000
27.3700 661.0000 1.0000
27.3800 658.0000 1.0000
27.3900 637.0000 1.0000
27.4000 671.0000 1.0000
27.4100 628.0000 1.0000
27.4200 672.0000 1.0000
27.4300 651.0000 1.0000
27.4400 621.0000 1.0000
27.4500 607.0000 1.0000
27.4600 670.0000 1.0000
27.4700 667.0000 1.0000
27.4800 639.0000 1.0000
27.4900 620.0000 1.0000
27.5000 662.0000 1.0000
27.5100 632.0000 1.0000
27.5200 679.0000 1.0000
27.5300 638.0000 1.0000
27.5400 660.0000 1.0000
27.5500 605.0000 1.0000
27.5600 651.0000 1.0000
27.5700 642.0000 1.0000
27.5800 632.0000 1.0000
27.5900 632.0000 1.0000
27.6000 609.0000 1.0000
27.6100 635.0000 1.0000
27.6200 615.0000 1.0000
27.6300 614.0000 1.0000
27.6400 652.0000 1.0000
27.6500 622.0000 1.0000
27.6600 616.0000 1.0000
27.6700 657.0000 1.0000
27.6800 641.0000 1.0000
27.6900 640.0000 1.0000
27.7000 648.0000 1.0000
27.7100 609.0000 1.0000
27.7200 606.0000 1.0000
27.7300 628.0000 1.0000
27.7400 652.0000 1.0000
27.7500 602.0000 1.0000
27.7600 632.0000 1.0000
27.7700 626.0000 1.0000
27.7800 621.0000 1.0000
27.7900 614.0000 1.0000
27.8000 625.0000 1.0000
27.8100 599.0000 1.0000
27.8200 629.0000 1.0000
27.8300 626.0000 1.0000
27.8400 646.0000 1.0000
27.8500 627.0000 1.0000
27.8600 630.0000 1.0000
27.8700 628.0000 1.0000
27.8800 620.0000 1.0000
27.8900 637.0000 1.0000
27.9000 593.0000 1.0000
27.9100 635.0000 1.0000
27.9200 601.0000 1.0000
27.9300 624.0000 1.0000
27.9400 645.0000 1.0000
27.9500 651.0000 1.0000
27.9600 617.0000 1.0000
27.9700 606.0000 1.0000
27.9800 622.0000 1.0000
27.9900 596.0000 1.0000
28.0000 605.0000 1.0000
28.0100 609.0000 1.0000
28.0200 565.0000 1.0000
28.0300 622.0000 1.0000
28.0400 639.0000 1.0000
28.0500 615.0000 1.0000
28.0600 639.0000 1.0000
28.0700 618.0000 1.0000
28.0800 645.0000 1.0000
28.0900 636.0000 1.0000
28.1000 617.0000 1.0000
28.1100 582.0000 1.0000
28.1200 614.0000 1.0000
28.1300 584.0000 1.0000
28.1400 568.0000 1.0000
28.1500 602.0000 1.0000
28.1600 606.0000 1.0000
28.1700 669.0000 1.0000
28.1800 628.0000 1.0000
28.1900 630.0000 1.0000
28.2000 587.0000 1.0000
28.2100 601.0000 1.0000
28.2200 628.0000 1.0000
28.2300 653.0000 1.0000
28.2400 635.0000 1.0000
28.2500 654.0000 1.0000
28.2600 635.0000 1.0000
28.2700 600.0000 1.0000
28.2800 609.0000 1.0000
28.2900 628.0000 1.0000
28.3000 618.0000 1.0000
28.3100 640.0000 1.0000
28.3200 617.0000 1.0000
28.3300 613.0000 1.0000
28.3400 571.0000 1.0000
28.3500 625.0000 1.0000
28.3600 586.0000 1.0000
28.3700 579.0000 1.0000
28.3800 598.0000 1.0000
28.3900 648.0000 1.0000
28.4000 643.0000 1.0000
28.4100 587.0000 1.0000
28.4200 624.0000 1.0000
28.4300 618.0000 1.0000
28.4400 647.0000 1.0000
28.4500 606.0000 1.0000
28.4600 580.0000 1.0000
28.4700 612.0000 1.0000
28.4800 611.0000 1.0000
28.4900 585.0000 1.0000
28.5000 575.0000 1.0000
28.5100 593.0000 1.0000
28.5200 616.0000 1.0000
28.5300 618.0000 1.0000
28.5400 563.0000 1.0000
28.5500 587.0000 1.0000
28.5600 600.0000 1.0000
28.5700 601.0000 1.0000
28.5800 613.0000 1.0000
28.5900 606.0000 1.0000
28.6000 631.0000 1.0000
28.6100 603.0000 1.0000
28.6200 591.0000 1.0000
28.6300 596.0000 1.0000
28.6400 607.0000 1.0000
28.6500 595.0000 1.0000
28.6600 620.0000 1.0000
28.6700 585.0000 1.0000
28.6800 585.0000 1.0000
28.6900 579.0000 1.0000
28.7000 560.0000 1.0000
28.7100 610.0000 1.0000
28.7200 591.0000 1.0000
28.7300 581.0000 1.0000
28.7400 605.0000 1.0000
28.7500 584.0000 1.0000
28.7600 567.0000 1.0000
28.7700 620.0000 1.0000
28.7800 655.0000 1.0000
28.7900 583.0000 1.0000
28.8000 609.0000 1.0000
28.8100 627.0000 1.0000
28.8200 580.0000 1.0000
28.8300 563.0000 1.0000
28.8400 597.0000 1.0000
28.8500 565.0000 1.0000
28.8600 568.0000 1.0000
28.8700 592.0000 1.0000
28.8800 582.0000 1.0000
28.8900 603.0000 1.0000
28.9000 564.0000 1.0000
28.9100 562.0000 1.0000
28.9200 606.0000 1.0000
28.9300 561.0000 1.0000
28.9400 573.0000 1.0000
28.9500 585.0000 1.0000
28.9600 618.0000 1.0000
28.9700 589.0000 1.0000
28.9800 611.0000 1.0000
28.9900 589.0000 1.0000
29.0000 613.0000 1.0000
29.0100 611.0000 1.0000
29.0200 576.0000 1.0000
29.0300 602.0000 1.0000
29.0400 571.0000 1.0000
29.0500 569.0000 1.0000
29.0600 572.0000 1.0000
29.0700 568.0000 1.0000
29.0800 537.0000 1.0000
29.0900 586.0000 1.0000
29.1000 583.0000 1.0000
29.1100 577.0000 1.0000
29.1200 600.0000 1.0000
29.1300 591.0000 1.0000
29.1400 587.0000 1.0000
29.1500 573.0000 1.0000
29.1600 559.0000 1.0000
29.1700 609.0000 1.0000
29.1800 600.0000 1.0000
29.1900 594.0000 1.0000
29.2000 594.0000 1.0000
29.2100 593.0000 1.0000
29.2200 553.0000 1.0000
29.2300 604.0000 1.0000
29.2400 560.0000 1.0000
29.2500 579.0000 1.0000
29.2600 565.0000 1.0000
29.2700 571.0000 1.0000
29.2800 546.0000 1.0000
29.2900 588.0000 1.0000
29.3000 569.0000 1.0000
29.3100 644.0000 1.0000
29.3200 539.0000 1.0000
29.3300 532.0000 1.0000
29.3400 561.0000 1.0000
29.3500 567.0000 1.0000
29.3600 566.0000 1.0000
29.3700 563.0000 1.0000
29.3800 577.0000 1.0000
29.3900 595.0000 1.0000
29.4000 592.0000 1.0000
29.4100 571.0000 1.0000
29.4200 563.0000 1.0000
29.4300 573.0000 1.0000
29.4400 545.0000 1.0000
29.4500 585.0000 1.0000
29.4600 587.0000 1.0000
29.4700 539.0000 1.0000
29.4800 508.0000 1.0000
29.4900 550.0000 1.0000
29.5000 575.0000 1.0000
29.5100 547.0000 1.0000
29.5200 540.0000 1.0000
29.5300 567.0000 1.0000
29.5400 552.0000 1.0000
29.5500 576.0000 1.0000
29.5600 588.0000 1.0000
29.5700 586.0000 1.0000
29.5800 560.0000 1.0000
29.5900 558.0000 1.0000
29.6000 582.0000 1.0000
29.6100 564.0000 1.0000
29.6200 563.0000 1.0000
29.6300 580.0000 1.0000
29.6400 572.0000 1.0000
29.6500 581.0000 1.0000
29.6600 590.0000 1.0000
29.6700 639.0000 1.0000
29.6800 591.0000 1.0000
29.6900 524.0000 1.0000
29.7000 550.0000 1.0000
29.7100 556.0000 1.0000
29.7200 571.0000 1.0000
29.7300 548.0000 1.0000
29.7400 577.0000 1.0000
29.7500 552.0000 1.0000
29.7600 526.0000 1.0000
29.7700 580.0000 1.0000
29.7800 563.0000 1.0000
29.7900 575.0000 1.0000
29.8000 547.0000 1.0000
29.8100 560.0000 1.0000
29.8200 559.0000 1.0000
29.8300 530.0000 1.0000
29.8400 532.0000 1.0000
29.8500 544.0000 1.0000
29.8600 545.0000 1.0000
29.8700 598.0000 1.0000
29.8800 535.0000 1.0000
29.8900 535.0000 1.0000
29.9000 536.0000 1.0000
29.9100 567.0000 1.0000
29.9200 560.0000 1.0000
29.9300 552.0000 1.0000
29.9400 538.0000 1.0000
29.9500 557.0000 1.0000
29.9600 556.0000 1.0000
29.9700 598.0000 1.0000
29.9800 532.0000 1.0000
29.9900 542.0000 1.0000
30.0000 572.0000 1.0000
30.0100 530.0000 1.0000
30.0200 516.0000 1.0000
30.0300 523.0000 1.0000
30.0400 542.0000 1.0000
30.0500 564.0000 1.0000
30.0600 512.0000 1.0000
30.0700 555.0000 1.0000
30.0800 562.0000 1.0000
30.0900 554.0000 1.0000
30.1000 557.0000 1.0000
30.1100 570.0000 1.0000
30.1200 520.0000 1.0000
30.1300 523.0000 1.0000
30.1400 551.0000 1.0000
30.1500 579.0000 1.0000
30.1600 559.0000 1.0000
30.1700 551.0000 1.0000
30.1800 568.0000 1.0000
30.1900 580.0000 1.0000
30.2000 583.0000 1.0000
30.2100 533.0000 1.0000
30.2200 546.0000 1.0000
30.2300 568.0000 1.0000
30.2400 589.0000 1.0000
30.2500 558.0000 1.0000
30.2600 564.0000 1.0000
30.2700 550.0000 1.0000
30.2800 537.0000 1.0000
30.2900 569.0000 1.0000
30.3000 574.0000 1.0000
30.3100 574.0000 1.0000
30.3200 571.0000 1.0000
30.3300 584.0000 1.0000
30.3400 510.0000 1.0000
30.3500 544.0000 1.0000
30.3600 564.0000 1.0000
30.3700 579.0000 1.0000
30.3800 561.0000 1.0000
30.3900 534.0000 1.0000
30.4000 603.0000 1.0000
30.4100 584.0000 1.0000
30.4200 577.0000 1.0000
30.4300 553.0000 1.0000
30.4400 527.0000 1.0000
30.4500 535.0000 1.0000
30.4600 546.0000 1.0000
30.4700 529.0000 1.0000
30.4800 560.0000 1.0000
30.4900 550.0000 1.0000
30.5000 560.0000 1.0000
30.5100 572.0000 1.0000
30.5200 540.0000 1.0000
30.5300 545.0000 1.0000
30.5400 560.0000 1.0000
30.5500 509.0000 1.0000
30.5600 539.0000 1.0000
30.5700 532.0000 1.0000
30.5800 530.0000 1.0000
30.5900 576.0000 1.0000
30.6000 528.0000 1.0000
30.6100 534.0000 1.0000
30.6200 556.0000 1.0000
30.6300 543.0000 1.0000
30.6400 539.0000 1.0000
30.6500 531.0000 1.0000
30.6600 536.0000 1.0000
30.6700 570.0000 1.0000
30.6800 536.0000 1.0000
30.6900 551.0000 1.0000
30.7000 542.0000 1.0000
30.7100 511.0000 1.0000
30.7200 551.0000 1.0000
30.7300 534.0000 1.0000
30.7400 556.0000 1.0000
30.7500 517.0000 1.0000
30.7600 550.0000 1.0000
30.7700 593.0000 1.0000
30.7800 545.0000 1.0000
30.7900 549.0000 1.0000
30.8000 519.0000 1.0000
30.8100 537.0000 1.0000
30.8200 542.0000 1.0000
30.8300 512.0000 1.0000
30.8400 533.0000 1.0000
30.8500 530.0000 1.0000
30.8600 574.0000 1.0000
30.8700 544.0000 1.0000
30.8800 516.0000 1.0000
30.8900 551.0000 1.0000
30.9000 553.0000 1.0000
30.9100 549.0000 1.0000
30.9200 624.0000 1.0000
30.9300 582.0000 1.0000
30.9400 523.0000 1.0000
30.9500 570.0000 1.0000
30.9600 586.0000 1.0000
30.9700 582.0000 1.0000
30.9800 564.0000 1.0000
30.9900 567.0000 1.0000
31.0000 564.0000 1.0000
31.0100 554.0000 1.0000
31.0200 559.0000 1.0000
31.0300 559.0000 1.0000
31.0400 576.0000 1.0000
31.0500 559.0000 1.0000
31.0600 569.0000 1.0000
31.0700 536.0000 1.0000
31.0800 604.0000 1.0000
31.0900 605.0000 1.0000
31.1000 562.0000 1.0000
31.1100 574.0000 1.0000
31.1200 547.0000 1.0000
31.1300 567.0000 1.0000
31.1400 562.0000 1.0000
31.1500 568.0000 1.0000
31.1600 573.0000 1.0000
31.1700 616.0000 1.0000
31.1800 590.0000 1.0000
31.1900 616.0000 1.0000
31.2000 567.0000 1.0000
31.2100 577.0000 1.0000
31.2200 600.0000 1.0000
31.2300 599.0000 1.0000
31.2400 534.0000 1.0000
31.2500 606.0000 1.0000
31.2600 582.0000 1.0000
31.2700 573.0000 1.0000
31.2800 576.0000 1.0000
31.2900 587.0000 1.0000
31.3000 596.0000 1.0000
31.3100 565.0000 1.0000
31.3200 552.0000 1.0000
31.3300 581.0000 1.0000
31.3400 610.0000 1.0000
31.3500 628.0000 1.0000
31.3600 644.0000 1.0000
31.3700 639.0000 1.0000
31.3800 648.0000 1.0000
31.3900 670.0000 1.0000
31.4000 657.0000 1.0000
31.4100 682.0000 1.0000
31.4200 670.0000 1.0000
31.4300 680.0000 1.0000
31.4400 755.0000 1.0000
31.4500 716.0000 1.0000
31.4600 719.0000 1.0000
31.4700 778.0000 1.0000
31.4800 763.0000 1.0000
31.4900 765.0000 1.0000
31.5000 766.0000 1.0000
31.5100 826.0000 1.0000
31.5200 853.0000 1.0000
31.5300 803.0000 1.0000
31.5400 859.0000 1.0000
31.5500 897.0000 1.0000
31.5600 920.0000 1.0000
31.5700 921.0000 1.0000
31.5800 956.0000 1.0000
31.5900 961.0000 1.0000
31.6000 1017.0000 1.0000
31.6100 983.0000 1.0000
31.6200 1006.0000 1.0000
31.6300 1014.0000 1.0000
31.6400 979.0000 1.0000
31.6500 951.0000 1.0000
31.6600 862.0000 1.0000
31.6700 867.0000 1.0000
31.6800 913.0000 1.0000
31.6900 784.0000 1.0000
31.7000 789.0000 1.0000
31.7100 799.0000 1.0000
31.7200 736.0000 1.0000
31.7300 739.0000 1.0000
31.7400 715.0000 1.0000
31.7500 694.0000 1.0000
31.7600 668.0000 1.0000
31.7700 652.0000 1.0000
31.7800 626.0000 1.0000
31.7900 602.0000 1.0000
31.8000 562.0000 1.0000
31.8100 549.0000 1.0000
31.8200 565.0000 1.0000
31.8300 546.0000 1.0000
31.8400 563.0000 1.0000
31.8500 551.0000 1.0000
31.8600 539.0000 1.0000
31.8700 569.0000 1.0000
31.8800 586.0000 1.0000
31.8900 553.0000 1.0000
31.9000 577.0000 1.0000
31.9100 528.0000 1.0000
31.9200 526.0000 1.0000
31.9300 505.0000 1.0000
31.9400 533.0000 1.0000
31.9500 529.0000 1.0000
31.9600 487.0000 1.0000
31.9700 523.0000 1.0000
31.9800 513.0000 1.0000
31.9900 524.0000 1.0000
32.0000 497.0000 1.0000
32.0100 489.0000 1.0000
32.0200 496.0000 1.0000
32.0300 509.0000 1.0000
32.0400 532.0000 1.0000
32.0500 506.0000 1.0000
32.0600 511.0000 1.0000
32.0700 503.0000 1.0000
32.0800 493.0000 1.0000
32.0900 536.0000 1.0000
32.1000 520.0000 1.0000
32.1100 494.0000 1.0000
32.1200 509.0000 1.0000
32.1300 538.0000 1.0000
32.1400 525.0000 1.0000
32.1500 492.0000 1.0000
32.1600 519.0000 1.0000
32.1700 510.0000 1.0000
32.1800 512.0000 1.0000
32.1900 548.0000 1.0000
32.2000 522.0000 1.0000
32.2100 535.0000 1.0000
32.2200 519.0000 1.0000
32.2300 472.0000 1.0000
32.2400 491.0000 1.0000
32.2500 520.0000 1.0000
32.2600 523.0000 1.0000
32.2700 485.0000 1.0000
32.2800 517.0000 1.0000
32.2900 523.0000 1.0000
32.3000 503.0000 1.0000
32.3100 526.0000 1.0000
32.3200 496.0000 1.0000
32.3300 533.0000 1.0000
32.3400 502.0000 1.0000
32.3500 519.0000 1.0000
32.3600 497.0000 1.0000
32.3700 460.0000 1.0000
32.3800 515.0000 1.0000
32.3900 555.0000 1.0000
32.4000 522.0000 1.0000
32.4100 489.0000 1.0000
32.4200 514.0000 1.0000
32.4300 537.0000 1.0000
32.4400 524.0000 1.0000
32.4500 516.0000 1.0000
32.4600 546.0000 1.0000
32.4700 510.0000 1.0000
32.4800 534.0000 1.0000
32.4900 507.0000 1.0000
32.5000 509.0000 1.0000
32.5100 515.0000 1.0000
32.5200 564.0000 1.0000
32.5300 510.0000 1.0000
32.5400 532.0000 1.0000
32.5500 521.0000 1.0000
32.5600 524.0000 1.0000
32.5700 522.0000 1.0000
32.5800 519.0000 1.0000
32.5900 486.0000 1.0000
32.6000 514.0000 1.0000
32.6100 538.0000 1.0000
32.6200 511.0000 1.0000
32.6300 523.0000 1.0000
32.6400 542.0000 1.0000
32.6500 507.0000 1.0000
32.6600 505.0000 1.0000
32.6700 506.0000 1.0000
32.6800 486.0000 1.0000
32.6900 498.0000 1.0000
32.7000 502.0000 1.0000
32.7100 509.0000 1.0000
32.7200 516.0000 1.0000
32.7300 543.0000 1.0000
32.7400 511.0000 1.0000
32.7500 546.0000 1.0000
32.7600 521.0000 1.0000
32.7700 528.0000 1.0000
32.7800 507.0000 1.0000
32.7900 531.0000 1.0000
32.8000 529.0000 1.0000
32.8100 525.0000 1.0000
32.8200 518.0000 1.0000
32.8300 494.0000 1.0000
32.8400 534.0000 1.0000
32.8500 542.0000 1.0000
32.8600 520.0000 1.0000
32.8700 539.0000 1.0000
32.8800 558.0000 1.0000
32.8900 570.0000 1.0000
32.9000 510.0000 1.0000
32.9100 534.0000 1.0000
32.9200 543.0000 1.0000
32.9300 568.0000 1.0000
32.9400 540.0000 1.0000
32.9500 551.0000 1.0000
32.9600 590.0000 1.0000
32.9700 614.0000 1.0000
32.9800 622.0000 1.0000
32.9900 612.0000 1.0000
33.0000 569.0000 1.0000
33.0100 601.0000 1.0000
33.0200 590.0000 1.0000
33.0300 630.0000 1.0000
33.0400 631.0000 1.0000
33.0500 627.0000 1.0000
33.0600 659.0000 1.0000
33.0700 680.0000 1.0000
33.0800 722.0000 1.0000
33.0900 687.0000 1.0000
33.1000 680.0000 1.0000
33.1100 644.0000 1.0000
33.1200 691.0000 1.0000
33.1300 682.0000 1.0000
33.1400 670.0000 1.0000
33.1500 650.0000 1.0000
33.1600 626.0000 1.0000
33.1700 625.0000 1.0000
33.1800 604.0000 1.0000
33.1900 587.0000 1.0000
33.2000 620.0000 1.0000
33.2100 598.0000 1.0000
33.2200 596.0000 1.0000
33.2300 592.0000 1.0000
33.2400 586.0000 1.0000
33.2500 596.0000 1.0000
33.2600 542.0000 1.0000
33.2700 555.0000 1.0000
33.2800 576.0000 1.0000
33.2900 534.0000 1.0000
33.3000 541.0000 1.0000
33.3100 576.0000 1.0000
33.3200 527.0000 1.0000
33.3300 588.0000 1.0000
33.3400 559.0000 1.0000
33.3500 551.0000 1.0000
33.3600 564.0000 1.0000
33.3700 559.0000 1.0000
33.3800 585.0000 1.0000
33.3900 557.0000 1.0000
33.4000 548.0000 1.0000
33.4100 562.0000 1.0000
33.4200 581.0000 1.0000
33.4300 565.0000 1.0000
33.4400 588.0000 1.0000
33.4500 596.0000 1.0000
33.4600 578.0000 1.0000
33.4700 623.0000 1.0000
33.4800 567.0000 1.0000
33.4900 603.0000 1.0000
33.5000 621.0000 1.0000
33.5100 631.0000 1.0000
33.5200 672.0000 1.0000
33.5300 642.0000 1.0000
33.5400 613.0000 1.0000
33.5500 650.0000 1.0000
33.5600 630.0000 1.0000
33.5700 630.0000 1.0000
33.5800 679.0000 1.0000
33.5900 660.0000 1.0000
33.6000 648.0000 1.0000
33.6100 637.0000 1.0000
33.6200 709.0000 1.0000
33.6300 676.0000 1.0000
33.6400 623.0000 1.0000
33.6500 663.0000 1.0000
33.6600 691.0000 1.0000
33.6700 682.0000 1.0000
33.6800 643.0000 1.0000
33.6900 645.0000 1.0000
33.7000 630.0000 1.0000
33.7100 639.0000 1.0000
33.7200 659.0000 1.0000
33.7300 657.0000 1.0000
33.7400 607.0000 1.0000
33.7500 624.0000 1.0000
33.7600 629.0000 1.0000
33.7700 633.0000 1.0000
33.7800 632.0000 1.0000
33.7900 610.0000 1.0000
33.8000 598.0000 1.0000
33.8100 619.0000 1.0000
33.8200 599.0000 1.0000
33.8300 568.0000 1.0000
33.8400 572.0000 1.0000
33.8500 576.0000 1.0000
33.8600 606.0000 1.0000
33.8700 589.0000 1.0000
33.8800 566.0000 1.0000
33.8900 532.0000 1.0000
33.9000 555.0000 1.0000
33.9100 576.0000 1.0000
33.9200 568.0000 1.0000
33.9300 560.0000 1.0000
33.9400 539.0000 1.0000
33.9500 554.0000 1.0000
33.9600 543.0000 1.0000
33.9700 552.0000 1.0000
33.9800 503.0000 1.0000
33.9900 495.0000 1.0000
34.0000 537.0000 1.0000
34.0100 522.0000 1.0000
34.0200 533.0000 1.0000
34.0300 555.0000 1.0000
34.0400 486.0000 1.0000
34.0500 504.0000 1.0000
34.0600 555.0000 1.0000
34.0700 547.0000 1.0000
34.0800 512.0000 1.0000
34.0900 491.0000 1.0000
34.1000 496.0000 1.0000
34.1100 495.0000 1.0000
34.1200 483.0000 1.0000
34.1300 458.0000 1.0000
34.1400 483.0000 1.0000
34.1500 481.0000 1.0000
34.1600 477.0000 1.0000
34.1700 448.0000 1.0000
34.1800 483.0000 1.0000
34.1900 473.0000 1.0000
34.2000 432.0000 1.0000
34.2100 466.0000 1.0000
34.2200 487.0000 1.0000
34.2300 438.0000 1.0000
34.2400 444.0000 1.0000
34.2500 489.0000 1.0000
34.2600 454.0000 1.0000
34.2700 488.0000 1.0000
34.2800 445.0000 1.0000
34.2900 508.0000 1.0000
34.3000 496.0000 1.0000
34.3100 445.0000 1.0000
34.3200 504.0000 1.0000
34.3300 453.0000 1.0000
34.3400 438.0000 1.0000
34.3500 457.0000 1.0000
34.3600 452.0000 1.0000
34.3700 458.0000 1.0000
34.3800 477.0000 1.0000
34.3900 474.0000 1.0000
34.4000 472.0000 1.0000
34.4100 479.0000 1.0000
34.4200 459.0000 1.0000
34.4300 437.0000 1.0000
34.4400 447.0000 1.0000
34.4500 460.0000 1.0000
34.4600 471.0000 1.0000
34.4700 468.0000 1.0000
34.4800 488.0000 1.0000
34.4900 453.0000 1.0000
34.5000 449.0000 1.0000
34.5100 460.0000 1.0000
34.5200 466.0000 1.0000
34.5300 465.0000 1.0000
34.5400 434.0000 1.0000
34.5500 438.0000 1.0000
34.5600 484.0000 1.0000
34.5700 473.0000 1.0000
34.5800 430.0000 1.0000
34.5900 446.0000 1.0000
34.6000 462.0000 1.0000
34.6100 432.0000 1.0000
34.6200 459.0000 1.0000
34.6300 450.0000 1.0000
34.6400 430.0000 1.0000
34.6500 443.0000 1.0000
34.6600 439.0000 1.0000
34.6700 461.0000 1.0000
34.6800 443.0000 1.0000
34.6900 448.0000 1.0000
34.7000 440.0000 1.0000
34.7100 450.0000 1.0000
34.7200 442.0000 1.0000
34.7300 469.0000 1.0000
34.7400 454.0000 1.0000
34.7500 440.0000 1.0000
34.7600 421.0000 1.0000
34.7700 443.0000 1.0000
34.7800 430.0000 1.0000
34.7900 450.0000 1.0000
34.8000 435.0000 1.0000
34.8100 440.0000 1.0000
34.8200 439.0000 1.0000
34.8300 459.0000 1.0000
34.8400 442.0000 1.0000
34.8500 453.0000 1.0000
34.8600 439.0000 1.0000
34.8700 441.0000 1.0000
34.8800 475.0000 1.0000
34.8900 465.0000 1.0000
34.9000 448.0000 1.0000
34.9100 450.0000 1.0000
34.9200 434.0000 1.0000
34.9300 444.0000 1.0000
34.9400 399.0000 1.0000
34.9500 434.0000 1.0000
34.9600 461.0000 1.0000
34.9700 455.0000 1.0000
34.9800 452.0000 1.0000
34.9900 420.0000 1.0000
35.0000 429.0000 1.0000
35.0100 417.0000 1.0000
35.0200 446.0000 1.0000
35.0300 425.0000 1.0000
35.0400 465.0000 1.0000
35.0500 430.0000 1.0000
35.0600 429.0000 1.0000
35.0700 437.0000 1.0000
35.0800 423.0000 1.0000
35.0900 465.0000 1.0000
35.1000 433.0000 1.0000
35.1100 454.0000 1.0000
35.1200 477.0000 1.0000
35.1300 438.0000 1.0000
35.1400 452.0000 1.0000
35.1500 448.0000 1.0000
35.1600 457.0000 1.0000
35.1700 464.0000 1.0000
35.1800 447.0000 1.0000
35.1900 458.0000 1.0000
35.2000 445.0000 1.0000
35.2100 437.0000 1.0000
35.2200 481.0000 1.0000
35.2300 472.0000 1.0000
35.2400 444.0000 1.0000
35.2500 469.0000 1.0000
35.2600 454.0000 1.0000
35.2700 468.0000 1.0000
35.2800 500.0000 1.0000
35.2900 459.0000 1.0000
35.3000 440.0000 1.0000
35.3100 445.0000 1.0000
35.3200 471.0000 1.0000
35.3300 477.0000 1.0000
35.3400 476.0000 1.0000
35.3500 507.0000 1.0000
35.3600 508.0000 1.0000
35.3700 534.0000 1.0000
35.3800 548.0000 1.0000
35.3900 526.0000 1.0000
35.4000 559.0000 1.0000
35.4100 518.0000 1.0000
35.4200 569.0000 1.0000
35.4300 607.0000 1.0000
35.4400 588.0000 1.0000
35.4500 614.0000 1.0000
35.4600 673.0000 1.0000
35.4700 631.0000 1.0000
35.4800 675.0000 1.0000
35.4900 688.0000 1.0000
35.5000 703.0000 1.0000
35.5100 730.0000 1.0000
35.5200 783.0000 1.0000
35.5300 771.0000 1.0000
35.5400 826.0000 1.0000
35.5500 865.0000 1.0000
35.5600 842.0000 1.0000
35.5700 883.0000 1.0000
35.5800 899.0000 1.0000
35.5900 850.0000 1.0000
35.6000 846.0000 1.0000
35.6100 813.0000 1.0000
35.6200 836.0000 1.0000
35.6300 771.0000 1.0000
35.6400 766.0000 1.0000
35.6500 737.0000 1.0000
35.6600 703.0000 1.0000
35.6700 686.0000 1.0000
35.6800 717.0000 1.0000
35.6900 684.0000 1.0000
35.7000 603.0000 1.0000
35.7100 619.0000 1.0000
35.7200 602.0000 1.0000
35.7300 584.0000 1.0000
35.7400 526.0000 1.0000
35.7500 507.0000 1.0000
35.7600 502.0000 1.0000
35.7700 480.0000 1.0000
35.7800 488.0000 1.0000
35.7900 455.0000 1.0000
35.8000 480.0000 1.0000
35.8100 436.0000 1.0000
35.8200 486.0000 1.0000
35.8300 484.0000 1.0000
35.8400 477.0000 1.0000
35.8500 438.0000 1.0000
35.8600 465.0000 1.0000
35.8700 435.0000 1.0000
35.8800 437.0000 1.0000
35.8900 464.0000 1.0000
35.9000 456.0000 1.0000
35.9100 426.0000 1.0000
35.9200 432.0000 1.0000
35.9300 428.0000 1.0000
35.9400 434.0000 1.0000
35.9500 442.0000 1.0000
35.9600 433.0000 1.0000
35.9700 446.0000 1.0000
35.9800 409.0000 1.0000
35.9900 399.0000 1.0000
36.0000 423.0000 1.0000
36.0100 413.0000 1.0000
36.0200 434.0000 1.0000
36.0300 413.0000 1.0000
36.0400 437.0000 1.0000
36.0500 445.0000 1.0000
36.0600 421.0000 1.0000
36.0700 439.0000 1.0000
36.0800 377.0000 1.0000
36.0900 415.0000 1.0000
36.1000 443.0000 1.0000
36.1100 408.0000 1.0000
36.1200 400.0000 1.0000
36.1300 420.0000 1.0000
36.1400 410.0000 1.0000
36.1500 436.0000 1.0000
36.1600 429.0000 1.0000
36.1700 408.0000 1.0000
36.1800 422.0000 1.0000
36.1900 401.0000 1.0000
36.2000 403.0000 1.0000
36.2100 398.0000 1.0000
36.2200 402.0000 1.0000
36.2300 407.0000 1.0000
36.2400 391.0000 1.0000
36.2500 430.0000 1.0000
36.2600 401.0000 1.0000
36.2700 405.0000 1.0000
36.2800 413.0000 1.0000
36.2900 405.0000 1.0000
36.3000 410.0000 1.0000
36.3100 396.0000 1.0000
36.3200 391.0000 1.0000
36.3300 415.0000 1.0000
36.3400 419.0000 1.0000
36.3500 418.0000 1.0000
36.3600 404.0000 1.0000
36.3700 393.0000 1.0000
36.3800 429.0000 1.0000
36.3900 395.0000 1.0000
36.4000 432.0000 1.0000
36.4100 417.0000 1.0000
36.4200 418.0000 1.0000
36.4300 439.0000 1.0000
36.4400 424.0000 1.0000
36.4500 397.0000 1.0000
36.4600 397.0000 1.0000
36.4700 413.0000 1.0000
36.4800 387.0000 1.0000
36.4900 433.0000 1.0000
36.5000 399.0000 1.0000
36.5100 413.0000 1.0000
36.5200 410.0000 1.0000
36.5300 452.0000 1.0000
36.5400 403.0000 1.0000
36.5500 421.0000 1.0000
36.5600 423.0000 1.0000
36.5700 415.0000 1.0000
36.5800 409.0000 1.0000
36.5900 462.0000 1.0000
36.6000 415.0000 1.0000
36.6100 452.0000 1.0000
36.6200 447.0000 1.0000
36.6300 455.0000 1.0000
36.6400 414.0000 1.0000
36.6500 430.0000 1.0000
36.6600 413.0000 1.0000
36.6700 450.0000 1.0000
36.6800 418.0000 1.0000
36.6900 407.0000 1.0000
36.7000 388.0000 1.0000
36.7100 441.0000 1.0000
36.7200 413.0000 1.0000
36.7300 389.0000 1.0000
36.7400 419.0000 1.0000
36.7500 403.0000 1.0000
36.7600 441.0000 1.0000
36.7700 400.0000 1.0000
36.7800 405.0000 1.0000
36.7900 437.0000 1.0000
36.8000 425.0000 1.0000
36.8100 433.0000 1.0000
36.8200 434.0000 1.0000
36.8300 406.0000 1.0000
36.8400 422.0000 1.0000
36.8500 402.0000 1.0000
36.8600 412.0000 1.0000
36.8700 435.0000 1.0000
36.8800 395.0000 1.0000
36.8900 429.0000 1.0000
36.9000 442.0000 1.0000
36.9100 430.0000 1.0000
36.9200 436.0000 1.0000
36.9300 394.0000 1.0000
36.9400 410.0000 1.0000
36.9500 444.0000 1.0000
36.9600 429.0000 1.0000
36.9700 430.0000 1.0000
36.9800 459.0000 1.0000
36.9900 424.0000 1.0000
37.0000 438.0000 1.0000
37.0100 451.0000 1.0000
37.0200 447.0000 1.0000
37.0300 421.0000 1.0000
37.0400 434.0000 1.0000
37.0500 449.0000 1.0000
37.0600 458.0000 1.0000
37.0700 422.0000 1.0000
37.0800 449.0000 1.0000
37.0900 458.0000 1.0000
37.1000 449.0000 1.0000
37.1100 446.0000 1.0000
37.1200 484.0000 1.0000
37.1300 469.0000 1.0000
37.1400 440.0000 1.0000
37.1500 448.0000 1.0000
37.1600 485.0000 1.0000
37.1700 475.0000 1.0000
37.1800 482.0000 1.0000
37.1900 452.0000 1.0000
37.2000 461.0000 1.0000
37.2100 477.0000 1.0000
37.2200 481.0000 1.0000
37.2300 461.0000 1.0000
37.2400 494.0000 1.0000
37.2500 522.0000 1.0000
37.2600 508.0000 1.0000
37.2700 475.0000 1.0000
37.2800 537.0000 1.0000
37.2900 526.0000 1.0000
37.3000 574.0000 1.0000
37.3100 584.0000 1.0000
37.3200 565.0000 1.0000
37.3300 562.0000 1.0000
37.3400 611.0000 1.0000
37.3500 620.0000 1.0000
37.3600 610.0000 1.0000
37.3700 623.0000 1.0000
37.3800 639.0000 1.0000
37.3900 685.0000 1.0000
37.4000 681.0000 1.0000
37.4100 729.0000 1.0000
37.4200 737.0000 1.0000
37.4300 766.0000 1.0000
37.4400 787.0000 1.0000
37.4500 802.0000 1.0000
37.4600 858.0000 1.0000
37.4700 893.0000 1.0000
37.4800 901.0000 1.0000
37.4900 1038.0000 1.0000
37.5000 1035.0000 1.0000
37.5100 1124.0000 1.0000
37.5200 1211.0000 1.0000
37.5300 1267.0000 1.0000
37.5400 1337.0000 1.0000
37.5500 1366.0000 1.0000
37.5600 1473.0000 1.0000
37.5700 1590.0000 1.0000
37.5800 1636.0000 1.0000
37.5900 1781.0000 1.0000
37.6000 1987.0000 1.0000
37.6100 2089.0000 1.0000
37.6200 2227.0000 1.0000
37.6300 2281.0000 1.0000
37.6400 2438.0000 1.0000
37.6500 2614.0000 1.0000
37.6600 2728.0000 1.0000
37.6700 2911.0000 1.0000
37.6800 2950.0000 1.0000
37.6900 2941.0000 1.0000
37.7000 2923.0000 1.0000
37.7100 3008.0000 1.0000
37.7200 3062.0000 1.0000
37.7300 3033.0000 1.0000
37.7400 3025.0000 1.0000
37.7500 2947.0000 1.0000
37.7600 2812.0000 1.0000
37.7700 2816.0000 1.0000
37.7800 2723.0000 1.0000
37.7900 2577.0000 1.0000
37.8000 2540.0000 1.0000
37.8100 2340.0000 1.0000
37.8200 2255.0000 1.0000
37.8300 2124.0000 1.0000
37.8400 2015.0000 1.0000
37.8500 1839.0000 1.0000
37.8600 1811.0000 1.0000
37.8700 1679.0000 1.0000
37.8800 1555.0000 1.0000
37.8900 1455.0000 1.0000
37.9000 1332.0000 1.0000
37.9100 1285.0000 1.0000
37.9200 1200.0000 1.0000
37.9300 1073.0000 1.0000
37.9400 1044.0000 1.0000
37.9500 995.0000 1.0000
37.9600 964.0000 1.0000
37.9700 895.0000 1.0000
37.9800 833.0000 1.0000
37.9900 814.0000 1.0000
38.0000 793.0000 1.0000
38.0100 788.0000 1.0000
38.0200 748.0000 1.0000
38.0300 675.0000 1.0000
38.0400 670.0000 1.0000
38.0500 641.0000 1.0000
38.0600 671.0000 1.0000
38.0700 619.0000 1.0000
38.0800 584.0000 1.0000
38.0900 605.0000 1.0000
38.1000 565.0000 1.0000
38.1100 588.0000 1.0000
38.1200 548.0000 1.0000
38.1300 515.0000 1.0000
38.1400 510.0000 1.0000
38.1500 497.0000 1.0000
38.1600 518.0000 1.0000
38.1700 530.0000 1.0000
38.1800 484.0000 1.0000
38.1900 457.0000 1.0000
38.2000 488.0000 1.0000
38.2100 443.0000 1.0000
38.2200 446.0000 1.0000
38.2300 482.0000 1.0000
38.2400 464.0000 1.0000
38.2500 451.0000 1.0000
38.2600 429.0000 1.0000
38.2700 428.0000 1.0000
38.2800 421.0000 1.0000
38.2900 399.0000 1.0000
38.3000 413.0000 1.0000
38.3100 405.0000 1.0000
38.3200 435.0000 1.0000
38.3300 421.0000 1.0000
38.3400 422.0000 1.0000
38.3500 413.0000 1.0000
38.3600 429.0000 1.0000
38.3700 396.0000 1.0000
38.3800 397.0000 1.0000
38.3900 381.0000 1.0000
38.4000 404.0000 1.0000
38.4100 414.0000 1.0000
38.4200 420.0000 1.0000
38.4300 413.0000 1.0000
38.4400 385.0000 1.0000
38.4500 388.0000 1.0000
38.4600 402.0000 1.0000
38.4700 388.0000 1.0000
38.4800 384.0000 1.0000
38.4900 390.0000 1.0000
38.5000 410.0000 1.0000
38.5100 367.0000 1.0000
38.5200 381.0000 1.0000
38.5300 395.0000 1.0000
38.5400 361.0000 1.0000
38.5500 377.0000 1.0000
38.5600 400.0000 1.0000
38.5700 377.0000 1.0000
38.5800 340.0000 1.0000
38.5900 364.0000 1.0000
38.6000 383.0000 1.0000
38.6100 392.0000 1.0000
38.6200 365.0000 1.0000
38.6300 394.0000 1.0000
38.6400 399.0000 1.0000
38.6500 371.0000 1.0000
38.6600 373.0000 1.0000
38.6700 409.0000 1.0000
38.6800 345.0000 1.0000
38.6900 376.0000 1.0000
38.7000 382.0000 1.0000
38.7100 375.0000 1.0000
38.7200 374.0000 1.0000
38.7300 382.0000 1.0000
38.7400 393.0000 1.0000
38.7500 377.0000 1.0000
38.7600 374.0000 1.0000
38.7700 349.0000 1.0000
38.7800 370.0000 1.0000
38.7900 352.0000 1.0000
38.8000 401.0000 1.0000
38.8100 381.0000 1.0000
38.8200 361.0000 1.0000
38.8300 372.0000 1.0000
38.8400 382.0000 1.0000
38.8500 377.0000 1.0000
38.8600 334.0000 1.0000
38.8700 366.0000 1.0000
38.8800 371.0000 1.0000
38.8900 348.0000 1.0000
38.9000 365.0000 1.0000
38.9100 331.0000 1.0000
38.9200 356.0000 1.0000
38.9300 364.0000 1.0000
38.9400 375.0000 1.0000
38.9500 380.0000 1.0000
38.9600 358.0000 1.0000
38.9700 346.0000 1.0000
38.9800 362.0000 1.0000
38.9900 379.0000 1.0000
39.0000 372.0000 1.0000
39.0100 357.0000 1.0000
39.0200 350.0000 1.0000
39.0300 379.0000 1.0000
39.0400 360.0000 1.0000
39.0500 379.0000 1.0000
39.0600 353.0000 1.0000
39.0700 359.0000 1.0000
39.0800 330.0000 1.0000
39.0900 354.0000 1.0000
39.1000 346.0000 1.0000
39.1100 371.0000 1.0000
39.1200 379.0000 1.0000
39.1300 318.0000 1.0000
39.1400 351.0000 1.0000
39.1500 363.0000 1.0000
39.1600 350.0000 1.0000
39.1700 344.0000 1.0000
39.1800 344.0000 1.0000
39.1900 351.0000 1.0000
39.2000 354.0000 1.0000
39.2100 368.0000 1.0000
39.2200 377.0000 1.0000
39.2300 345.0000 1.0000
39.2400 376.0000 1.0000
39.2500 357.0000 1.0000
39.2600 368.0000 1.0000
39.2700 351.0000 1.0000
39.2800 336.0000 1.0000
39.2900 339.0000 1.0000
39.3000 333.0000 1.0000
39.3100 334.0000 1.0000
39.3200 361.0000 1.0000
39.3300 353.0000 1.0000
39.3400 360.0000 1.0000
39.3500 353.0000 1.0000
39.3600 375.0000 1.0000
39.3700 367.0000 1.0000
39.3800 354.0000 1.0000
39.3900 331.0000 1.0000
39.4000 335.0000 1.0000
39.4100 326.0000 1.0000
39.4200 360.0000 1.0000
39.4300 352.0000 1.0000
39.4400 329.0000 1.0000
39.4500 331.0000 1.0000
39.4600 330.0000 1.0000
39.4700 359.0000 1.0000
39.4800 344.0000 1.0000
39.4900 354.0000 1.0000
39.5000 341.0000 1.0000
39.5100 359.0000 1.0000
39.5200 359.0000 1.0000
39.5300 357.0000 1.0000
39.5400 362.0000 1.0000
39.5500 345.0000 1.0000
39.5600 334.0000 1.0000
39.5700 349.0000 1.0000
39.5800 349.0000 1.0000
39.5900 342.0000 1.0000
39.6000 357.0000 1.0000
39.6100 348.0000 1.0000
39.6200 347.0000 1.0000
39.6300 359.0000 1.0000
39.6400 351.0000 1.0000
39.6500 368.0000 1.0000
39.6600 348.0000 1.0000
39.6700 358.0000 1.0000
39.6800 326.0000 1.0000
39.6900 324.0000 1.0000
39.7000 361.0000 1.0000
39.7100 342.0000 1.0000
39.7200 344.0000 1.0000
39.7300 340.0000 1.0000
39.7400 323.0000 1.0000
39.7500 319.0000 1.0000
39.7600 331.0000 1.0000
39.7700 307.0000 1.0000
39.7800 339.0000 1.0000
39.7900 352.0000 1.0000
39.8000 333.0000 1.0000
39.8100 371.0000 1.0000
39.8200 355.0000 1.0000
39.8300 339.0000 1.0000
39.8400 345.0000 1.0000
39.8500 347.0000 1.0000
39.8600 347.0000 1.0000
39.8700 334.0000 1.0000
39.8800 358.0000 1.0000
39.8900 356.0000 1.0000
39.9000 323.0000 1.0000
39.9100 333.0000 1.0000
39.9200 329.0000 1.0000
39.9300 331.0000 1.0000
39.9400 318.0000 1.0000
39.9500 330.0000 1.0000
39.9600 347.0000 1.0000
39.9700 350.0000 1.0000
39.9800 340.0000 1.0000
39.9900 340.0000 1.0000
40.0000 319.0000 1.0000
40.0100 342.0000 1.0000
40.0200 314.0000 1.0000
40.0300 329.0000 1.0000
40.0400 353.0000 1.0000
40.0500 347.0000 1.0000
40.0600 350.0000 1.0000
40.0700 343.0000 1.0000
40.0800 347.0000 1.0000
40.0900 340.0000 1.0000
40.1000 349.0000 1.0000
40.1100 340.0000 1.0000
40.1200 334.0000 1.0000
40.1300 350.0000 1.0000
40.1400 330.0000 1.0000
40.1500 338.0000 1.0000
40.1600 309.0000 1.0000
40.1700 338.0000 1.0000
40.1800 344.0000 1.0000
40.1900 351.0000 1.0000
40.2000 333.0000 1.0000
40.2100 342.0000 1.0000
40.2200 367.0000 1.0000
40.2300 358.0000 1.0000
40.2400 355.0000 1.0000
40.2500 357.0000 1.0000
40.2600 347.0000 1.0000
40.2700 356.0000 1.0000
40.2800 371.0000 1.0000
40.2900 367.0000 1.0000
40.3000 355.0000 1.0000
40.3100 375.0000 1.0000
40.3200 365.0000 1.0000
40.3300 341.0000 1.0000
40.3400 340.0000 1.0000
40.3500 356.0000 1.0000
40.3600 371.0000 1.0000
40.3700 393.0000 1.0000
40.3800 356.0000 1.0000
40.3900 369.0000 1.0000
40.4000 395.0000 1.0000
40.4100 400.0000 1.0000
40.4200 398.0000 1.0000
40.4300 417.0000 1.0000
40.4400 384.0000 1.0000
40.4500 406.0000 1.0000
40.4600 376.0000 1.0000
40.4700 395.0000 1.0000
40.4800 407.0000 1.0000
40.4900 389.0000 1.0000
40.5000 397.0000 1.0000
40.5100 393.0000 1.0000
40.5200 412.0000 1.0000
40.5300 417.0000 1.0000
40.5400 394.0000 1.0000
40.5500 417.0000 1.0000
40.5600 438.0000 1.0000
40.5700 410.0000 1.0000
40.5800 416.0000 1.0000
40.5900 393.0000 1.0000
40.6000 374.0000 1.0000
40.6100 395.0000 1.0000
40.6200 374.0000 1.0000
40.6300 395.0000 1.0000
40.6400 377.0000 1.0000
40.6500 359.0000 1.0000
40.6600 367.0000 1.0000
40.6700 393.0000 1.0000
40.6800 375.0000 1.0000
40.6900 376.0000 1.0000
40.7000 341.0000 1.0000
40.7100 342.0000 1.0000
40.7200 357.0000 1.0000
40.7300 389.0000 1.0000
40.7400 394.0000 1.0000
40.7500 366.0000 1.0000
40.7600 376.0000 1.0000
40.7700 372.0000 1.0000
40.7800 372.0000 1.0000
40.7900 399.0000 1.0000
40.8000 386.0000 1.0000
40.8100 384.0000 1.0000
40.8200 355.0000 1.0000
40.8300 333.0000 1.0000
40.8400 361.0000 1.0000
40.8500 374.0000 1.0000
40.8600 367.0000 1.0000
40.8700 372.0000 1.0000
40.8800 371.0000 1.0000
40.8900 373.0000 1.0000
40.9000 383.0000 1.0000
40.9100 367.0000 1.0000
40.9200 377.0000 1.0000
40.9300 345.0000 1.0000
40.9400 345.0000 1.0000
40.9500 346.0000 1.0000
40.9600 363.0000 1.0000
40.9700 356.0000 1.0000
40.9800 361.0000 1.0000
40.9900 322.0000 1.0000
41.0000 352.0000 1.0000
41.0100 327.0000 1.0000
41.0200 326.0000 1.0000
41.0300 363.0000 1.0000
41.0400 328.0000 1.0000
41.0500 327.0000 1.0000
41.0600 334.0000 1.0000
41.0700 346.0000 1.0000
41.0800 344.0000 1.0000
41.0900 316.0000 1.0000
41.1000 376.0000 1.0000
41.1100 325.0000 1.0000
41.1200 312.0000 1.0000
41.1300 327.0000 1.0000
41.1400 304.0000 1.0000
41.1500 322.0000 1.0000
41.1600 334.0000 1.0000
41.1700 346.0000 1.0000
41.1800 349.0000 1.0000
41.1900 310.0000 1.0000
41.2000 339.0000 1.0000
41.2100 356.0000 1.0000
41.2200 330.0000 1.0000
41.2300 312.0000 1.0000
41.2400 334.0000 1.0000
41.2500 334.0000 1.0000
41.2600 332.0000 1.0000
41.2700 302.0000 1.0000
41.2800 333.0000 1.0000
41.2900 324.0000 1.0000
41.3000 348.0000 1.0000
41.3100 332.0000 1.0000
41.3200 342.0000 1.0000
41.3300 342.0000 1.0000
41.3400 363.0000 1.0000
41.3500 323.0000 1.0000
41.3600 333.0000 1.0000
41.3700 326.0000 1.0000
41.3800 341.0000 1.0000
41.3900 327.0000 1.0000
41.4000 310.0000 1.0000
41.4100 325.0000 1.0000
41.4200 339.0000 1.0000
41.4300 324.0000 1.0000
41.4400 324.0000 1.0000
41.4500 317.0000 1.0000
41.4600 320.0000 1.0000
41.4700 314.0000 1.0000
41.4800 297.0000 1.0000
41.4900 318.0000 1.0000
41.5000 335.0000 1.0000
41.5100 316.0000 1.0000
41.5200 325.0000 1.0000
41.5300 360.0000 1.0000
41.5400 327.0000 1.0000
41.5500 304.0000 1.0000
41.5600 336.0000 1.0000
41.5700 296.0000 1.0000
41.5800 346.0000 1.0000
41.5900 320.0000 1.0000
41.6000 317.0000 1.0000
41.6100 313.0000 1.0000
41.6200 311.0000 1.0000
41.6300 330.0000 1.0000
41.6400 327.0000 1.0000
41.6500 349.0000 1.0000
41.6600 345.0000 1.0000
41.6700 344.0000 1.0000
41.6800 331.0000 1.0000
41.6900 317.0000 1.0000
41.7000 309.0000 1.0000
41.7100 300.0000 1.0000
41.7200 339.0000 1.0000
41.7300 326.0000 1.0000
41.7400 327.0000 1.0000
41.7500 331.0000 1.0000
41.7600 329.0000 1.0000
41.7700 307.0000 1.0000
41.7800 303.0000 1.0000
41.7900 306.0000 1.0000
41.8000 291.0000 1.0000
41.8100 319.0000 1.0000
41.8200 339.0000 1.0000
41.8300 302.0000 1.0000
41.8400 345.0000 1.0000
41.8500 307.0000 1.0000
41.8600 316.0000 1.0000
41.8700 309.0000 1.0000
41.8800 329.0000 1.0000
41.8900 292.0000 1.0000
41.9000 348.0000 1.0000
41.9100 335.0000 1.0000
41.9200 329.0000 1.0000
41.9300 318.0000 1.0000
41.9400 287.0000 1.0000
41.9500 322.0000 1.0000
41.9600 329.0000 1.0000
41.9700 330.0000 1.0000
41.9800 344.0000 1.0000
41.9900 317.0000 1.0000
42.0000 336.0000 1.0000
42.0100 331.0000 1.0000
42.0200 324.0000 1.0000
42.0300 316.0000 1.0000
42.0400 316.0000 1.0000
42.0500 303.0000 1.0000
42.0600 339.0000 1.0000
42.0700 335.0000 1.0000
42.0800 316.0000 1.0000
42.0900 313.0000 1.0000
42.1000 333.0000 1.0000
42.1100 310.0000 1.0000
42.1200 324.0000 1.0000
42.1300 318.0000 1.0000
42.1400 337.0000 1.0000
42.1500 322.0000 1.0000
42.1600 305.0000 1.0000
42.1700 336.0000 1.0000
42.1800 337.0000 1.0000
42.1900 321.0000 1.0000
42.2000 339.0000 1.0000
42.2100 353.0000 1.0000
42.2200 347.0000 1.0000
42.2300 328.0000 1.0000
42.2400 337.0000 1.0000
42.2500 316.0000 1.0000
42.2600 341.0000 1.0000
42.2700 318.0000 1.0000
42.2800 347.0000 1.0000
42.2900 325.0000 1.0000
42.3000 314.0000 1.0000
42.3100 312.0000 1.0000
42.3200 316.0000 1.0000
42.3300 341.0000 1.0000
42.3400 321.0000 1.0000
42.3500 328.0000 1.0000
42.3600 314.0000 1.0000
42.3700 348.0000 1.0000
42.3800 340.0000 1.0000
42.3900 327.0000 1.0000
42.4000 341.0000 1.0000
42.4100 335.0000 1.0000
42.4200 335.0000 1.0000
42.4300 329.0000 1.0000
42.4400 316.0000 1.0000
42.4500 361.0000 1.0000
42.4600 329.0000 1.0000
42.4700 353.0000 1.0000
42.4800 343.0000 1.0000
42.4900 333.0000 1.0000
42.5000 311.0000 1.0000
42.5100 344.0000 1.0000
42.5200 330.0000 1.0000
42.5300 346.0000 1.0000
42.5400 351.0000 1.0000
42.5500 355.0000 1.0000
42.5600 335.0000 1.0000
42.5700 335.0000 1.0000
42.5800 309.0000 1.0000
42.5900 335.0000 1.0000
42.6000 334.0000 1.0000
42.6100 347.0000 1.0000
42.6200 339.0000 1.0000
42.6300 330.0000 1.0000
42.6400 330.0000 1.0000
42.6500 353.0000 1.0000
42.6600 331.0000 1.0000
42.6700 318.0000 1.0000
42.6800 326.0000 1.0000
42.6900 306.0000 1.0000
42.7000 353.0000 1.0000
42.7100 353.0000 1.0000
42.7200 330.0000 1.0000
42.7300 306.0000 1.0000
42.7400 295.0000 1.0000
42.7500 333.0000 1.0000
42.7600 319.0000 1.0000
42.7700 320.0000 1.0000
42.7800 321.0000 1.0000
42.7900 320.0000 1.0000
42.8000 340.0000 1.0000
42.8100 327.0000 1.0000
42.8200 328.0000 1.0000
42.8300 310.0000 1.0000
42.8400 315.0000 1.0000
42.8500 310.0000 1.0000
42.8600 314.0000 1.0000
42.8700 306.0000 1.0000
42.8800 325.0000 1.0000
42.8900 312.0000 1.0000
42.9000 308.0000 1.0000
42.9100 320.0000 1.0000
42.9200 330.0000 1.0000
42.9300 323.0000 1.0000
42.9400 330.0000 1.0000
42.9500 320.0000 1.0000
42.9600 328.0000 1.0000
42.9700 323.0000 1.0000
42.9800 320.0000 1.0000
42.9900 275.0000 1.0000
43.0000 312.0000 1.0000
43.0100 292.0000 1.0000
43.0200 306.0000 1.0000
43.0300 307.0000 1.0000
43.0400 310.0000 1.0000
43.0500 297.0000 1.0000
43.0600 323.0000 1.0000
43.0700 301.0000 1.0000
43.0800 284.0000 1.0000
43.0900 316.0000 1.0000
43.1000 295.0000 1.0000
43.1100 308.0000 1.0000
43.1200 311.0000 1.0000
43.1300 350.0000 1.0000
43.1400 306.0000 1.0000
43.1500 311.0000 1.0000
43.1600 311.0000 1.0000
43.1700 301.0000 1.0000
43.1800 313.0000 1.0000
43.1900 354.0000 1.0000
43.2000 327.0000 1.0000
43.2100 306.0000 1.0000
43.2200 310.0000 1.0000
43.2300 323.0000 1.0000
43.2400 299.0000 1.0000
43.2500 339.0000 1.0000
43.2600 324.0000 1.0000
43.2700 320.0000 1.0000
43.2800 332.0000 1.0000
43.2900 338.0000 1.0000
43.3000 340.0000 1.0000
43.3100 318.0000 1.0000
43.3200 314.0000 1.0000
43.3300 307.0000 1.0000
43.3400 324.0000 1.0000
43.3500 310.0000 1.0000
43.3600 302.0000 1.0000
43.3700 290.0000 1.0000
43.3800 325.0000 1.0000
43.3900 312.0000 1.0000
43.4000 332.0000 1.0000
43.4100 319.0000 1.0000
43.4200 310.0000 1.0000
43.4300 324.0000 1.0000
43.4400 292.0000 1.0000
43.4500 304.0000 1.0000
43.4600 287.0000 1.0000
43.4700 330.0000 1.0000
43.4800 307.0000 1.0000
43.4900 306.0000 1.0000
43.5000 305.0000 1.0000
43.5100 322.0000 1.0000
43.5200 319.0000 1.0000
43.5300 340.0000 1.0000
43.5400 324.0000 1.0000
43.5500 307.0000 1.0000
43.5600 294.0000 1.0000
43.5700 274.0000 1.0000
43.5800 284.0000 1.0000
43.5900 302.0000 1.0000
43.6000 292.0000 1.0000
43.6100 317.0000 1.0000
43.6200 308.0000 1.0000
43.6300 299.0000 1.0000
43.6400 329.0000 1.0000
43.6500 342.0000 1.0000
43.6600 312.0000 1.0000
43.6700 315.0000 1.0000
43.6800 268.0000 1.0000
43.6900 317.0000 1.0000
43.7000 298.0000 1.0000
43.7100 316.0000 1.0000
43.7200 342.0000 1.0000
43.7300 335.0000 1.0000
43.7400 316.0000 1.0000
43.7500 315.0000 1.0000
43.7600 297.0000 1.0000
43.7700 310.0000 1.0000
43.7800 326.0000 1.0000
43.7900 328.0000 1.0000
43.8000 311.0000 1.0000
43.8100 323.0000 1.0000
43.8200 291.0000 1.0000
43.8300 275.0000 1.0000
43.8400 335.0000 1.0000
43.8500 334.0000 1.0000
43.8600 299.0000 1.0000
43.8700 307.0000 1.0000
43.8800 333.0000 1.0000
43.8900 308.0000 1.0000
43.9000 315.0000 1.0000
43.9100 301.0000 1.0000
43.9200 298.0000 1.0000
43.9300 305.0000 1.0000
43.9400 315.0000 1.0000
43.9500 280.0000 1.0000
43.9600 323.0000 1.0000
43.9700 302.0000 1.0000
43.9800 311.0000 1.0000
43.9900 341.0000 1.0000
44.0000 309.0000 1.0000
44.0100 321.0000 1.0000
44.0200 302.0000 1.0000
44.0300 290.0000 1.0000
44.0400 334.0000 1.0000
44.0500 336.0000 1.0000
44.0600 310.0000 1.0000
44.0700 323.0000 1.0000
44.0800 292.0000 1.0000
44.0900 297.0000 1.0000
44.1000 316.0000 1.0000
44.1100 335.0000 1.0000
44.1200 303.0000 1.0000
44.1300 297.0000 1.0000
44.1400 295.0000 1.0000
44.1500 297.0000 1.0000
44.1600 317.0000 1.0000
44.1700 297.0000 1.0000
44.1800 297.0000 1.0000
44.1900 307.0000 1.0000
44.2000 291.0000 1.0000
44.2100 317.0000 1.0000
44.2200 292.0000 1.0000
44.2300 300.0000 1.0000
44.2400 335.0000 1.0000
44.2500 312.0000 1.0000
44.2600 306.0000 1.0000
44.2700 297.0000 1.0000
44.2800 297.0000 1.0000
44.2900 306.0000 1.0000
44.3000 330.0000 1.0000
44.3100 297.0000 1.0000
44.3200 311.0000 1.0000
44.3300 314.0000 1.0000
44.3400 293.0000 1.0000
44.3500 319.0000 1.0000
44.3600 289.0000 1.0000
44.3700 307.0000 1.0000
44.3800 290.0000 1.0000
44.3900 323.0000 1.0000
44.4000 322.0000 1.0000
44.4100 333.0000 1.0000
44.4200 313.0000 1.0000
44.4300 297.0000 1.0000
44.4400 325.0000 1.0000
44.4500 289.0000 1.0000
44.4600 289.0000 1.0000
44.4700 302.0000 1.0000
44.4800 290.0000 1.0000
44.4900 287.0000 1.0000
44.5000 319.0000 1.0000
44.5100 299.0000 1.0000
44.5200 283.0000 1.0000
44.5300 315.0000 1.0000
44.5400 283.0000 1.0000
44.5500 320.0000 1.0000
44.5600 322.0000 1.0000
44.5700 299.0000 1.0000
44.5800 333.0000 1.0000
44.5900 292.0000 1.0000
44.6000 286.0000 1.0000
44.6100 325.0000 1.0000
44.6200 295.0000 1.0000
44.6300 314.0000 1.0000
44.6400 294.0000 1.0000
44.6500 309.0000 1.0000
44.6600 291.0000 1.0000
44.6700 303.0000 1.0000
44.6800 288.0000 1.0000
44.6900 317.0000 1.0000
44.7000 314.0000 1.0000
44.7100 322.0000 1.0000
44.7200 305.0000 1.0000
44.7300 291.0000 1.0000
44.7400 294.0000 1.0000
44.7500 297.0000 1.0000
44.7600 298.0000 1.0000
44.7700 310.0000 1.0000
44.7800 334.0000 1.0000
44.7900 296.0000 1.0000
44.8000 316.0000 1.0000
44.8100 314.0000 1.0000
44.8200 295.0000 1.0000
44.8300 314.0000 1.0000
44.8400 324.0000 1.0000
44.8500 293.0000 1.0000
44.8600 289.0000 1.0000
44.8700 300.0000 1.0000
44.8800 290.0000 1.0000
44.8900 303.0000 1.0000
44.9000 304.0000 1.0000
44.9100 301.0000 1.0000
44.9200 297.0000 1.0000
44.9300 298.0000 1.0000
44.9400 287.0000 1.0000
44.9500 312.0000 1.0000
44.9600 336.0000 1.0000
44.9700 303.0000 1.0000
44.9800 296.0000 1.0000
44.9900 301.0000 1.0000
45.0000 297.0000 1.0000
45.0100 261.0000 1.0000
45.0200 268.0000 1.0000
45.0300 281.0000 1.0000
45.0400 292.0000 1.0000
45.0500 326.0000 1.0000
45.0600 289.0000 1.0000
45.0700 292.0000 1.0000
45.0800 276.0000 1.0000
45.0900 284.0000 1.0000
45.1000 279.0000 1.0000
45.1100 277.0000 1.0000
45.1200 299.0000 1.0000
45.1300 294.0000 1.0000
45.1400 303.0000 1.0000
45.1500 298.0000 1.0000
45.1600 297.0000 1.0000
45.1700 333.0000 1.0000
45.1800 309.0000 1.0000
45.1900 291.0000 1.0000
45.2000 316.0000 1.0000
45.2100 308.0000 1.0000
45.2200 314.0000 1.0000
45.2300 300.0000 1.0000
45.2400 329.0000 1.0000
45.2500 333.0000 1.0000
45.2600 326.0000 1.0000
45.2700 313.0000 1.0000
45.2800 329.0000 1.0000
45.2900 328.0000 1.0000
45.3000 309.0000 1.0000
45.3100 299.0000 1.0000
45.3200 317.0000 1.0000
45.3300 334.0000 1.0000
45.3400 319.0000 1.0000
45.3500 302.0000 1.0000
45.3600 281.0000 1.0000
45.3700 303.0000 1.0000
45.3800 294.0000 1.0000
45.3900 313.0000 1.0000
45.4000 320.0000 1.0000
45.4100 296.0000 1.0000
45.4200 269.0000 1.0000
45.4300 276.0000 1.0000
45.4400 283.0000 1.0000
45.4500 297.0000 1.0000
45.4600 285.0000 1.0000
45.4700 330.0000 1.0000
45.4800 297.0000 1.0000
45.4900 300.0000 1.0000
45.5000 334.0000 1.0000
45.5100 269.0000 1.0000
45.5200 296.0000 1.0000
45.5300 320.0000 1.0000
45.5400 287.0000 1.0000
45.5500 257.0000 1.0000
45.5600 301.0000 1.0000
45.5700 313.0000 1.0000
45.5800 307.0000 1.0000
45.5900 285.0000 1.0000
45.6000 294.0000 1.0000
45.6100 292.0000 1.0000
45.6200 271.0000 1.0000
45.6300 301.0000 1.0000
45.6400 314.0000 1.0000
45.6500 292.0000 1.0000
45.6600 296.0000 1.0000
45.6700 266.0000 1.0000
45.6800 295.0000 1.0000
45.6900 288.0000 1.0000
45.7000 286.0000 1.0000
45.7100 271.0000 1.0000
45.7200 273.0000 1.0000
45.7300 266.0000 1.0000
45.7400 289.0000 1.0000
45.7500 269.0000 1.0000
45.7600 300.0000 1.0000
45.7700 282.0000 1.0000
45.7800 299.0000 1.0000
45.7900 287.0000 1.0000
45.8000 269.0000 1.0000
45.8100 298.0000 1.0000
45.8200 289.0000 1.0000
45.8300 281.0000 1.0000
45.8400 317.0000 1.0000
45.8500 288.0000 1.0000
45.8600 285.0000 1.0000
45.8700 284.0000 1.0000
45.8800 283.0000 1.0000
45.8900 280.0000 1.0000
45.9000 281.0000 1.0000
45.9100 290.0000 1.0000
45.9200 284.0000 1.0000
45.9300 280.0000 1.0000
45.9400 287.0000 1.0000
45.9500 300.0000 1.0000
45.9600 274.0000 1.0000
45.9700 286.0000 1.0000
45.9800 306.0000 1.0000
45.9900 287.0000 1.0000
46.0000 297.0000 1.0000
46.0100 284.0000 1.0000
46.0200 284.0000 1.0000
46.0300 287.0000 1.0000
46.0400 288.0000 1.0000
46.0500 300.0000 1.0000
46.0600 289.0000 1.0000
46.0700 283.0000 1.0000
46.0800 272.0000 1.0000
46.0900 278.0000 1.0000
46.1000 288.0000 1.0000
46.1100 290.0000 1.0000
46.1200 314.0000 1.0000
46.1300 283.0000 1.0000
46.1400 305.0000 1.0000
46.1500 289.0000 1.0000
46.1600 267.0000 1.0000
46.1700 294.0000 1.0000
46.1800 278.0000 1.0000
46.1900 291.0000 1.0000
46.2000 267.0000 1.0000
46.2100 291.0000 1.0000
46.2200 275.0000 1.0000
46.2300 288.0000 1.0000
46.2400 280.0000 1.0000
46.2500 291.0000 1.0000
46.2600 286.0000 1.0000
46.2700 293.0000 1.0000
46.2800 270.0000 1.0000
46.2900 279.0000 1.0000
46.3000 286.0000 1.0000
46.3100 294.0000 1.0000
46.3200 297.0000 1.0000
46.3300 284.0000 1.0000
46.3400 283.0000 1.0000
46.3500 269.0000 1.0000
46.3600 298.0000 1.0000
46.3700 310.0000 1.0000
46.3800 286.0000 1.0000
46.3900 281.0000 1.0000
46.4000 270.0000 1.0000
46.4100 284.0000 1.0000
46.4200 289.0000 1.0000
46.4300 291.0000 1.0000
46.4400 298.0000 1.0000
46.4500 284.0000 1.0000
46.4600 291.0000 1.0000
46.4700 279.0000 1.0000
46.4800 291.0000 1.0000
46.4900 303.0000 1.0000
46.5000 296.0000 1.0000
46.5100 294.0000 1.0000
46.5200 279.0000 1.0000
46.5300 268.0000 1.0000
46.5400 311.0000 1.0000
46.5500 285.0000 1.0000
46.5600 276.0000 1.0000
46.5700 288.0000 1.0000
46.5800 298.0000 1.0000
46.5900 306.0000 1.0000
46.6000 298.0000 1.0000
46.6100 301.0000 1.0000
46.6200 289.0000 1.0000
46.6300 298.0000 1.0000
46.6400 267.0000 1.0000
46.6500 290.0000 1.0000
46.6600 269.0000 1.0000
46.6700 299.0000 1.0000
46.6800 308.0000 1.0000
46.6900 304.0000 1.0000
46.7000 263.0000 1.0000
46.7100 282.0000 1.0000
46.7200 291.0000 1.0000
46.7300 289.0000 1.0000
46.7400 275.0000 1.0000
46.7500 263.0000 1.0000
46.7600 264.0000 1.0000
46.7700 310.0000 1.0000
46.7800 272.0000 1.0000
46.7900 276.0000 1.0000
46.8000 253.0000 1.0000
46.8100 280.0000 1.0000
46.8200 297.0000 1.0000
46.8300 264.0000 1.0000
46.8400 272.0000 1.0000
46.8500 297.0000 1.0000
46.8600 290.0000 1.0000
46.8700 307.0000 1.0000
46.8800 298.0000 1.0000
46.8900 269.0000 1.0000
46.9000 253.0000 1.0000
46.9100 295.0000 1.0000
46.9200 277.0000 1.0000
46.9300 303.0000 1.0000
46.9400 282.0000 1.0000
46.9500 267.0000 1.0000
46.9600 268.0000 1.0000
46.9700 273.0000 1.0000
46.9800 293.0000 1.0000
46.9900 284.0000 1.0000
47.0000 278.0000 1.0000
47.0100 259.0000 1.0000
47.0200 269.0000 1.0000
47.0300 275.0000 1.0000
47.0400 284.0000 1.0000
47.0500 275.0000 1.0000
47.0600 283.0000 1.0000
47.0700 293.0000 1.0000
47.0800 288.0000 1.0000
47.0900 265.0000 1.0000
47.1000 271.0000 1.0000
47.1100 277.0000 1.0000
47.1200 288.0000 1.0000
47.1300 286.0000 1.0000
47.1400 286.0000 1.0000
47.1500 280.0000 1.0000
47.1600 300.0000 1.0000
47.1700 258.0000 1.0000
47.1800 284.0000 1.0000
47.1900 264.0000 1.0000
47.2000 241.0000 1.0000
47.2100 274.0000 1.0000
47.2200 285.0000 1.0000
47.2300 254.0000 1.0000
47.2400 275.0000 1.0000
47.2500 260.0000 1.0000
47.2600 272.0000 1.0000
47.2700 288.0000 1.0000
47.2800 273.0000 1.0000
47.2900 246.0000 1.0000
47.3000 292.0000 1.0000
47.3100 276.0000 1.0000
47.3200 291.0000 1.0000
47.3300 254.0000 1.0000
47.3400 292.0000 1.0000
47.3500 292.0000 1.0000
47.3600 268.0000 1.0000
47.3700 263.0000 1.0000
47.3800 275.0000 1.0000
47.3900 276.0000 1.0000
47.4000 279.0000 1.0000
47.4100 258.0000 1.0000
47.4200 297.0000 1.0000
47.4300 288.0000 1.0000
47.4400 286.0000 1.0000
47.4500 288.0000 1.0000
47.4600 281.0000 1.0000
47.4700 268.0000 1.0000
47.4800 275.0000 1.0000
47.4900 274.0000 1.0000
47.5000 268.0000 1.0000
47.5100 264.0000 1.0000
47.5200 285.0000 1.0000
47.5300 300.0000 1.0000
47.5400 318.0000 1.0000
47.5500 254.0000 1.0000
47.5600 287.0000 1.0000
47.5700 267.0000 1.0000
47.5800 283.0000 1.0000
47.5900 264.0000 1.0000
47.6000 270.0000 1.0000
47.6100 250.0000 1.0000
47.6200 275.0000 1.0000
47.6300 274.0000 1.0000
47.6400 283.0000 1.0000
47.6500 285.0000 1.0000
47.6600 261.0000 1.0000
47.6700 279.0000 1.0000
47.6800 291.0000 1.0000
47.6900 269.0000 1.0000
47.7000 255.0000 1.0000
47.7100 278.0000 1.0000
47.7200 276.0000 1.0000
47.7300 250.0000 1.0000
47.7400 266.0000 1.0000
47.7500 278.0000 1.0000
47.7600 249.0000 1.0000
47.7700 259.0000 1.0000
47.7800 279.0000 1.0000
47.7900 269.0000 1.0000
47.8000 273.0000 1.0000
47.8100 290.0000 1.0000
47.8200 274.0000 1.0000
47.8300 272.0000 1.0000
47.8400 270.0000 1.0000
47.8500 260.0000 1.0000
47.8600 246.0000 1.0000
47.8700 259.0000 1.0000
47.8800 275.0000 1.0000
47.8900 279.0000 1.0000
47.9000 274.0000 1.0000
47.9100 289.0000 1.0000
47.9200 271.0000 1.0000
47.9300 289.0000 1.0000
47.9400 277.0000 1.0000
47.9500 239.0000 1.0000
47.9600 264.0000 1.0000
47.9700 276.0000 1.0000
47.9800 281.0000 1.0000
47.9900 286.0000 1.0000
48.0000 316.0000 1.0000
48.0100 281.0000 1.0000
48.0200 259.0000 1.0000
48.0300 289.0000 1.0000
48.0400 270.0000 1.0000
48.0500 282.0000 1.0000
48.0600 248.0000 1.0000
48.0700 251.0000 1.0000
48.0800 293.0000 1.0000
48.0900 269.0000 1.0000
48.1000 286.0000 1.0000
48.1100 275.0000 1.0000
48.1200 274.0000 1.0000
48.1300 265.0000 1.0000
48.1400 287.0000 1.0000
48.1500 262.0000 1.0000
48.1600 285.0000 1.0000
48.1700 279.0000 1.0000
48.1800 266.0000 1.0000
48.1900 245.0000 1.0000
48.2000 284.0000 1.0000
48.2100 259.0000 1.0000
48.2200 272.0000 1.0000
48.2300 301.0000 1.0000
48.2400 270.0000 1.0000
48.2500 277.0000 1.0000
48.2600 276.0000 1.0000
48.2700 252.0000 1.0000
48.2800 249.0000 1.0000
48.2900 283.0000 1.0000
48.3000 265.0000 1.0000
48.3100 269.0000 1.0000
48.3200 274.0000 1.0000
48.3300 278.0000 1.0000
48.3400 275.0000 1.0000
48.3500 239.0000 1.0000
48.3600 260.0000 1.0000
48.3700 272.0000 1.0000
48.3800 290.0000 1.0000
48.3900 275.0000 1.0000
48.4000 264.0000 1.0000
48.4100 281.0000 1.0000
48.4200 255.0000 1.0000
48.4300 273.0000 1.0000
48.4400 285.0000 1.0000
48.4500 292.0000 1.0000
48.4600 276.0000 1.0000
48.4700 265.0000 1.0000
48.4800 261.0000 1.0000
48.4900 254.0000 1.0000
48.5000 255.0000 1.0000
48.5100 278.0000 1.0000
48.5200 270.0000 1.0000
48.5300 245.0000 1.0000
48.5400 268.0000 1.0000
48.5500 271.0000 1.0000
48.5600 276.0000 1.0000
48.5700 286.0000 1.0000
48.5800 264.0000 1.0000
48.5900 282.0000 1.0000
48.6000 277.0000 1.0000
48.6100 274.0000 1.0000
48.6200 253.0000 1.0000
48.6300 249.0000 1.0000
48.6400 254.0000 1.0000
48.6500 257.0000 1.0000
48.6600 273.0000 1.0000
48.6700 256.0000 1.0000
48.6800 274.0000 1.0000
48.6900 265.0000 1.0000
48.7000 255.0000 1.0000
48.7100 268.0000 1.0000
48.7200 291.0000 1.0000
48.7300 255.0000 1.0000
48.7400 274.0000 1.0000
48.7500 248.0000 1.0000
48.7600 281.0000 1.0000
48.7700 255.0000 1.0000
48.7800 274.0000 1.0000
48.7900 276.0000 1.0000
48.8000 276.0000 1.0000
48.8100 299.0000 1.0000
48.8200 274.0000 1.0000
48.8300 255.0000 1.0000
48.8400 265.0000 1.0000
48.8500 266.0000 1.0000
48.8600 262.0000 1.0000
48.8700 278.0000 1.0000
48.8800 278.0000 1.0000
48.8900 259.0000 1.0000
48.9000 275.0000 1.0000
48.9100 272.0000 1.0000
48.9200 280.0000 1.0000
48.9300 250.0000 1.0000
48.9400 285.0000 1.0000
48.9500 262.0000 1.0000
48.9600 289.0000 1.0000
48.9700 283.0000 1.0000
48.9800 260.0000 1.0000
48.9900 253.0000 1.0000
49.0000 274.0000 1.0000
49.0100 260.0000 1.0000
49.0200 264.0000 1.0000
49.0300 285.0000 1.0000
49.0400 261.0000 1.0000
49.0500 275.0000 1.0000
49.0600 277.0000 1.0000
49.0700 287.0000 1.0000
49.0800 256.0000 1.0000
49.0900 274.0000 1.0000
49.1000 278.0000 1.0000
49.1100 243.0000 1.0000
49.1200 273.0000 1.0000
49.1300 262.0000 1.0000
49.1400 272.0000 1.0000
49.1500 290.0000 1.0000
49.1600 274.0000 1.0000
49.1700 294.0000 1.0000
49.1800 295.0000 1.0000
49.1900 263.0000 1.0000
49.2000 260.0000 1.0000
49.2100 259.0000 1.0000
49.2200 264.0000 1.0000
49.2300 290.0000 1.0000
49.2400 294.0000 1.0000
49.2500 309.0000 1.0000
49.2600 276.0000 1.0000
49.2700 262.0000 1.0000
49.2800 274.0000 1.0000
49.2900 313.0000 1.0000
49.3000 285.0000 1.0000
49.3100 280.0000 1.0000
49.3200 300.0000 1.0000
49.3300 303.0000 1.0000
49.3400 299.0000 1.0000
49.3500 282.0000 1.0000
49.3600 275.0000 1.0000
49.3700 329.0000 1.0000
49.3800 289.0000 1.0000
49.3900 325.0000 1.0000
49.4000 323.0000 1.0000
49.4100 294.0000 1.0000
49.4200 307.0000 1.0000
49.4300 312.0000 1.0000
49.4400 316.0000 1.0000
49.4500 311.0000 1.0000
49.4600 304.0000 1.0000
49.4700 298.0000 1.0000
49.4800 313.0000 1.0000
49.4900 301.0000 1.0000
49.5000 295.0000 1.0000
49.5100 288.0000 1.0000
49.5200 294.0000 1.0000
49.5300 282.0000 1.0000
49.5400 284.0000 1.0000
49.5500 299.0000 1.0000
49.5600 312.0000 1.0000
49.5700 296.0000 1.0000
49.5800 276.0000 1.0000
49.5900 259.0000 1.0000
49.6000 250.0000 1.0000
49.6100 264.0000 1.0000
49.6200 277.0000 1.0000
49.6300 282.0000 1.0000
49.6400 272.0000 1.0000
49.6500 270.0000 1.0000
49.6600 277.0000 1.0000
49.6700 283.0000 1.0000
49.6800 274.0000 1.0000
49.6900 275.0000 1.0000
49.7000 278.0000 1.0000
49.7100 279.0000 1.0000
49.7200 279.0000 1.0000
49.7300 285.0000 1.0000
49.7400 280.0000 1.0000
49.7500 261.0000 1.0000
49.7600 235.0000 1.0000
49.7700 301.0000 1.0000
49.7800 297.0000 1.0000
49.7900 268.0000 1.0000
49.8000 290.0000 1.0000
49.8100 299.0000 1.0000
49.8200 281.0000 1.0000
49.8300 274.0000 1.0000
49.8400 269.0000 1.0000
49.8500 260.0000 1.0000
49.8600 281.0000 1.0000
49.8700 296.0000 1.0000
49.8800 280.0000 1.0000
49.8900 277.0000 1.0000
49.9000 271.0000 1.0000
49.9100 297.0000 1.0000
49.9200 276.0000 1.0000
49.9300 289.0000 1.0000
49.9400 279.0000 1.0000
49.9500 287.0000 1.0000
49.9600 252.0000 1.0000
49.9700 271.0000 1.0000
49.9800 282.0000 1.0000
49.9900 267.0000 1.0000
50.0000 257.0000 1.0000
50.0100 265.0000 1.0000
50.0200 259.0000 1.0000
50.0300 286.0000 1.0000
50.0400 269.0000 1.0000
50.0500 260.0000 1.0000
50.0600 269.0000 1.0000
50.0700 283.0000 1.0000
50.0800 255.0000 1.0000
50.0900 282.0000 1.0000
50.1000 250.0000 1.0000
50.1100 286.0000 1.0000
50.1200 260.0000 1.0000
50.1300 255.0000 1.0000
50.1400 267.0000 1.0000
50.1500 296.0000 1.0000
50.1600 267.0000 1.0000
50.1700 275.0000 1.0000
50.1800 268.0000 1.0000
50.1900 265.0000 1.0000
50.2000 278.0000 1.0000
50.2100 268.0000 1.0000
50.2200 270.0000 1.0000
50.2300 260.0000 1.0000
50.2400 265.0000 1.0000
50.2500 254.0000 1.0000
50.2600 275.0000 1.0000
50.2700 283.0000 1.0000
50.2800 255.0000 1.0000
50.2900 278.0000 1.0000
50.3000 266.0000 1.0000
50.3100 257.0000 1.0000
50.3200 269.0000 1.0000
50.3300 248.0000 1.0000
50.3400 266.0000 1.0000
50.3500 267.0000 1.0000
50.3600 279.0000 1.0000
50.3700 262.0000 1.0000
50.3800 269.0000 1.0000
50.3900 257.0000 1.0000
50.4000 255.0000 1.0000
50.4100 253.0000 1.0000
50.4200 260.0000 1.0000
50.4300 271.0000 1.0000
50.4400 282.0000 1.0000
50.4500 274.0000 1.0000
50.4600 274.0000 1.0000
50.4700 272.0000 1.0000
50.4800 239.0000 1.0000
50.4900 258.0000 1.0000
50.5000 265.0000 1.0000
50.5100 286.0000 1.0000
50.5200 256.0000 1.0000
50.5300 234.0000 1.0000
50.5400 267.0000 1.0000
50.5500 261.0000 1.0000
50.5600 274.0000 1.0000
50.5700 285.0000 1.0000
50.5800 290.0000 1.0000
50.5900 277.0000 1.0000
50.6000 272.0000 1.0000
50.6100 266.0000 1.0000
50.6200 272.0000 1.0000
50.6300 265.0000 1.0000
50.6400 262.0000 1.0000
50.6500 268.0000 1.0000
50.6600 233.0000 1.0000
50.6700 235.0000 1.0000
50.6800 269.0000 1.0000
50.6900 272.0000 1.0000
50.7000 283.0000 1.0000
50.7100 292.0000 1.0000
50.7200 310.0000 1.0000
50.7300 280.0000 1.0000
50.7400 272.0000 1.0000
50.7500 244.0000 1.0000
50.7600 257.0000 1.0000
50.7700 288.0000 1.0000
50.7800 258.0000 1.0000
50.7900 294.0000 1.0000
50.8000 293.0000 1.0000
50.8100 262.0000 1.0000
50.8200 277.0000 1.0000
50.8300 280.0000 1.0000
50.8400 265.0000 1.0000
50.8500 266.0000 1.0000
50.8600 285.0000 1.0000
50.8700 281.0000 1.0000
50.8800 276.0000 1.0000
50.8900 272.0000 1.0000
50.9000 278.0000 1.0000
50.9100 275.0000 1.0000
50.9200 286.0000 1.0000
50.9300 285.0000 1.0000
50.9400 282.0000 1.0000
50.9500 290.0000 1.0000
50.9600 276.0000 1.0000
50.9700 257.0000 1.0000
50.9800 261.0000 1.0000
50.9900 285.0000 1.0000
51.0000 278.0000 1.0000
51.0100 278.0000 1.0000
51.0200 292.0000 1.0000
51.0300 323.0000 1.0000
51.0400 306.0000 1.0000
51.0500 308.0000 1.0000
51.0600 306.0000 1.0000
51.0700 325.0000 1.0000
51.0800 335.0000 1.0000
51.0900 332.0000 1.0000
51.1000 292.0000 1.0000
51.1100 325.0000 1.0000
51.1200 335.0000 1.0000
51.1300 337.0000 1.0000
51.1400 311.0000 1.0000
51.1500 343.0000 1.0000
51.1600 328.0000 1.0000
51.1700 311.0000 1.0000
51.1800 334.0000 1.0000
51.1900 350.0000 1.0000
51.2000 338.0000 1.0000
51.2100 362.0000 1.0000
51.2200 393.0000 1.0000
51.2300 407.0000 1.0000
51.2400 405.0000 1.0000
51.2500 398.0000 1.0000
51.2600 391.0000 1.0000
51.2700 427.0000 1.0000
51.2800 437.0000 1.0000
51.2900 483.0000 1.0000
51.3000 461.0000 1.0000
51.3100 512.0000 1.0000
51.3200 520.0000 1.0000
51.3300 550.0000 1.0000
51.3400 600.0000 1.0000
51.3500 602.0000 1.0000
51.3600 640.0000 1.0000
51.3700 651.0000 1.0000
51.3800 711.0000 1.0000
51.3900 734.0000 1.0000
51.4000 775.0000 1.0000
51.4100 860.0000 1.0000
51.4200 861.0000 1.0000
51.4300 847.0000 1.0000
51.4400 840.0000 1.0000
51.4500 886.0000 1.0000
51.4600 900.0000 1.0000
51.4700 887.0000 1.0000
51.4800 851.0000 1.0000
51.4900 836.0000 1.0000
51.5000 866.0000 1.0000
51.5100 851.0000 1.0000
51.5200 828.0000 1.0000
51.5300 809.0000 1.0000
51.5400 787.0000 1.0000
51.5500 787.0000 1.0000
51.5600 837.0000 1.0000
51.5700 732.0000 1.0000
51.5800 750.0000 1.0000
51.5900 707.0000 1.0000
51.6000 682.0000 1.0000
51.6100 678.0000 1.0000
51.6200 641.0000 1.0000
51.6300 645.0000 1.0000
51.6400 586.0000 1.0000
51.6500 554.0000 1.0000
51.6600 517.0000 1.0000
51.6700 542.0000 1.0000
51.6800 491.0000 1.0000
51.6900 490.0000 1.0000
51.7000 472.0000 1.0000
51.7100 472.0000 1.0000
51.7200 447.0000 1.0000
51.7300 456.0000 1.0000
51.7400 426.0000 1.0000
51.7500 398.0000 1.0000
51.7600 430.0000 1.0000
51.7700 390.0000 1.0000
51.7800 374.0000 1.0000
51.7900 410.0000 1.0000
51.8000 379.0000 1.0000
51.8100 348.0000 1.0000
51.8200 356.0000 1.0000
51.8300 345.0000 1.0000
51.8400 352.0000 1.0000
51.8500 354.0000 1.0000
51.8600 326.0000 1.0000
51.8700 346.0000 1.0000
51.8800 335.0000 1.0000
51.8900 321.0000 1.0000
51.9000 328.0000 1.0000
51.9100 312.0000 1.0000
51.9200 276.0000 1.0000
51.9300 308.0000 1.0000
51.9400 285.0000 1.0000
51.9500 326.0000 1.0000
51.9600 304.0000 1.0000
51.9700 310.0000 1.0000
51.9800 279.0000 1.0000
51.9900 302.0000 1.0000
52.0000 298.0000 1.0000
52.0100 285.0000 1.0000
52.0200 275.0000 1.0000
52.0300 287.0000 1.0000
52.0400 286.0000 1.0000
52.0500 289.0000 1.0000
52.0600 281.0000 1.0000
52.0700 294.0000 1.0000
52.0800 305.0000 1.0000
52.0900 313.0000 1.0000
52.1000 280.0000 1.0000
52.1100 273.0000 1.0000
52.1200 275.0000 1.0000
52.1300 253.0000 1.0000
52.1400 266.0000 1.0000
52.1500 272.0000 1.0000
52.1600 276.0000 1.0000
52.1700 292.0000 1.0000
52.1800 278.0000 1.0000
52.1900 265.0000 1.0000
52.2000 279.0000 1.0000
52.2100 274.0000 1.0000
52.2200 256.0000 1.0000
52.2300 264.0000 1.0000
52.2400 275.0000 1.0000
52.2500 307.0000 1.0000
52.2600 244.0000 1.0000
52.2700 260.0000 1.0000
52.2800 275.0000 1.0000
52.2900 261.0000 1.0000
52.3000 259.0000 1.0000
52.3100 270.0000 1.0000
52.3200 272.0000 1.0000
52.3300 252.0000 1.0000
52.3400 256.0000 1.0000
52.3500 269.0000 1.0000
52.3600 280.0000 1.0000
52.3700 287.0000 1.0000
52.3800 278.0000 1.0000
52.3900 254.0000 1.0000
52.4000 243.0000 1.0000
52.4100 266.0000 1.0000
52.4200 269.0000 1.0000
52.4300 280.0000 1.0000
52.4400 272.0000 1.0000
52.4500 274.0000 1.0000
52.4600 279.0000 1.0000
52.4700 267.0000 1.0000
52.4800 248.0000 1.0000
52.4900 276.0000 1.0000
52.5000 243.0000 1.0000
52.5100 263.0000 1.0000
52.5200 266.0000 1.0000
52.5300 247.0000 1.0000
52.5400 278.0000 1.0000
52.5500 288.0000 1.0000
52.5600 284.0000 1.0000
52.5700 266.0000 1.0000
52.5800 248.0000 1.0000
52.5900 264.0000 1.0000
52.6000 271.0000 1.0000
52.6100 258.0000 1.0000
52.6200 274.0000 1.0000
52.6300 274.0000 1.0000
52.6400 281.0000 1.0000
52.6500 267.0000 1.0000
52.6600 245.0000 1.0000
52.6700 246.0000 1.0000
52.6800 239.0000 1.0000
52.6900 253.0000 1.0000
52.7000 266.0000 1.0000
52.7100 228.0000 1.0000
52.7200 256.0000 1.0000
52.7300 292.0000 1.0000
52.7400 251.0000 1.0000
52.7500 243.0000 1.0000
52.7600 267.0000 1.0000
52.7700 268.0000 1.0000
52.7800 265.0000 1.0000
52.7900 260.0000 1.0000
52.8000 257.0000 1.0000
52.8100 263.0000 1.0000
52.8200 238.0000 1.0000
52.8300 251.0000 1.0000
52.8400 241.0000 1.0000
52.8500 241.0000 1.0000
52.8600 243.0000 1.0000
52.8700 257.0000 1.0000
52.8800 239.0000 1.0000
52.8900 246.0000 1.0000
52.9000 269.0000 1.0000
52.9100 278.0000 1.0000
52.9200 245.0000 1.0000
52.9300 290.0000 1.0000
52.9400 289.0000 1.0000
52.9500 252.0000 1.0000
52.9600 262.0000 1.0000
52.9700 266.0000 1.0000
52.9800 268.0000 1.0000
52.9900 251.0000 1.0000
53.0000 246.0000 1.0000
53.0100 245.0000 1.0000
53.0200 278.0000 1.0000
53.0300 258.0000 1.0000
53.0400 231.0000 1.0000
53.0500 251.0000 1.0000
53.0600 252.0000 1.0000
53.0700 266.0000 1.0000
53.0800 246.0000 1.0000
53.0900 245.0000 1.0000
53.1000 260.0000 1.0000
53.1100 249.0000 1.0000
53.1200 237.0000 1.0000
53.1300 255.0000 1.0000
53.1400 254.0000 1.0000
53.1500 240.0000 1.0000
53.1600 229.0000 1.0000
53.1700 262.0000 1.0000
53.1800 266.0000 1.0000
53.1900 241.0000 1.0000
53.2000 268.0000 1.0000
53.2100 259.0000 1.0000
53.2200 281.0000 1.0000
53.2300 250.0000 1.0000
53.2400 252.0000 1.0000
53.2500 269.0000 1.0000
53.2600 272.0000 1.0000
53.2700 249.0000 1.0000
53.2800 258.0000 1.0000
53.2900 245.0000 1.0000
53.3000 251.0000 1.0000
53.3100 254.0000 1.0000
53.3200 249.0000 1.0000
53.3300 242.0000 1.0000
53.3400 250.0000 1.0000
53.3500 256.0000 1.0000
53.3600 255.0000 1.0000
53.3700 243.0000 1.0000
53.3800 281.0000 1.0000
53.3900 243.0000 1.0000
53.4000 252.0000 1.0000
53.4100 271.0000 1.0000
53.4200 256.0000 1.0000
53.4300 252.0000 1.0000
53.4400 261.0000 1.0000
53.4500 250.0000 1.0000
53.4600 254.0000 1.0000
53.4700 265.0000 1.0000
53.4800 267.0000 1.0000
53.4900 236.0000 1.0000
53.5000 275.0000 1.0000
53.5100 261.0000 1.0000
53.5200 276.0000 1.0000
53.5300 262.0000 1.0000
53.5400 271.0000 1.0000
53.5500 280.0000 1.0000
53.5600 267.0000 1.0000
53.5700 239.0000 1.0000
53.5800 274.0000 1.0000
53.5900 260.0000 1.0000
53.6000 274.0000 1.0000
53.6100 270.0000 1.0000
53.6200 254.0000 1.0000
53.6300 271.0000 1.0000
53.6400 262.0000 1.0000
53.6500 260.0000 1.0000
53.6600 280.0000 1.0000
53.6700 259.0000 1.0000
53.6800 276.0000 1.0000
53.6900 243.0000 1.0000
53.7000 241.0000 1.0000
53.7100 278.0000 1.0000
53.7200 256.0000 1.0000
53.7300 261.0000 1.0000
53.7400 249.0000 1.0000
53.7500 261.0000 1.0000
53.7600 248.0000 1.0000
53.7700 273.0000 1.0000
53.7800 240.0000 1.0000
53.7900 233.0000 1.0000
53.8000 275.0000 1.0000
53.8100 268.0000 1.0000
53.8200 287.0000 1.0000
53.8300 278.0000 1.0000
53.8400 267.0000 1.0000
53.8500 298.0000 1.0000
53.8600 307.0000 1.0000
53.8700 281.0000 1.0000
53.8800 291.0000 1.0000
53.8900 286.0000 1.0000
53.9000 281.0000 1.0000
53.9100 280.0000 1.0000
53.9200 295.0000 1.0000
53.9300 299.0000 1.0000
53.9400 255.0000 1.0000
53.9500 293.0000 1.0000
53.9600 306.0000 1.0000
53.9700 303.0000 1.0000
53.9800 316.0000 1.0000
53.9900 297.0000 1.0000
54.0000 321.0000 1.0000
54.0100 306.0000 1.0000
54.0200 293.0000 1.0000
54.0300 326.0000 1.0000
54.0400 293.0000 1.0000
54.0500 302.0000 1.0000
54.0600 289.0000 1.0000
54.0700 293.0000 1.0000
54.0800 319.0000 1.0000
54.0900 313.0000 1.0000
54.1000 297.0000 1.0000
54.1100 290.0000 1.0000
54.1200 317.0000 1.0000
54.1300 296.0000 1.0000
54.1400 322.0000 1.0000
54.1500 299.0000 1.0000
54.1600 270.0000 1.0000
54.1700 296.0000 1.0000
54.1800 301.0000 1.0000
54.1900 274.0000 1.0000
54.2000 299.0000 1.0000
54.2100 294.0000 1.0000
54.2200 309.0000 1.0000
54.2300 277.0000 1.0000
54.2400 264.0000 1.0000
54.2500 301.0000 1.0000
54.2600 275.0000 1.0000
54.2700 293.0000 1.0000
54.2800 281.0000 1.0000
54.2900 290.0000 1.0000
54.3000 306.0000 1.0000
54.3100 289.0000 1.0000
54.3200 286.0000 1.0000
54.3300 281.0000 1.0000
54.3400 287.0000 1.0000
54.3500 303.0000 1.0000
54.3600 287.0000 1.0000
54.3700 295.0000 1.0000
54.3800 324.0000 1.0000
54.3900 312.0000 1.0000
54.4000 318.0000 1.0000
54.4100 329.0000 1.0000
54.4200 298.0000 1.0000
54.4300 311.0000 1.0000
54.4400 298.0000 1.0000
54.4500 311.0000 1.0000
54.4600 332.0000 1.0000
54.4700 304.0000 1.0000
54.4800 314.0000 1.0000
54.4900 332.0000 1.0000
54.5000 310.0000 1.0000
54.5100 318.0000 1.0000
54.5200 331.0000 1.0000
54.5300 319.0000 1.0000
54.5400 335.0000 1.0000
54.5500 327.0000 1.0000
54.5600 287.0000 1.0000
54.5700 283.0000 1.0000
54.5800 297.0000 1.0000
54.5900 299.0000 1.0000
54.6000 312.0000 1.0000
54.6100 301.0000 1.0000
54.6200 325.0000 1.0000
54.6300 318.0000 1.0000
54.6400 292.0000 1.0000
54.6500 293.0000 1.0000
54.6600 304.0000 1.0000
54.6700 295.0000 1.0000
54.6800 290.0000 1.0000
54.6900 278.0000 1.0000
54.7000 279.0000 1.0000
54.7100 264.0000 1.0000
54.7200 257.0000 1.0000
54.7300 272.0000 1.0000
54.7400 276.0000 1.0000
54.7500 254.0000 1.0000
54.7600 272.0000 1.0000
54.7700 289.0000 1.0000
54.7800 289.0000 1.0000
54.7900 280.0000 1.0000
54.8000 284.0000 1.0000
54.8100 277.0000 1.0000
54.8200 253.0000 1.0000
54.8300 268.0000 1.0000
54.8400 253.0000 1.0000
54.8500 250.0000 1.0000
54.8600 281.0000 1.0000
54.8700 243.0000 1.0000
54.8800 271.0000 1.0000
54.8900 280.0000 1.0000
54.9000 291.0000 1.0000
54.9100 271.0000 1.0000
54.9200 259.0000 1.0000
54.9300 288.0000 1.0000
54.9400 264.0000 1.0000
54.9500 263.0000 1.0000
54.9600 274.0000 1.0000
54.9700 257.0000 1.0000
54.9800 270.0000 1.0000
54.9900 279.0000 1.0000
55.0000 240.0000 1.0000
55.0100 249.0000 1.0000
55.0200 264.0000 1.0000
55.0300 247.0000 1.0000
55.0400 239.0000 1.0000
55.0500 267.0000 1.0000
55.0600 249.0000 1.0000
55.0700 254.0000 1.0000
55.0800 250.0000 1.0000
55.0900 264.0000 1.0000
55.1000 232.0000 1.0000
55.1100 257.0000 1.0000
55.1200 250.0000 1.0000
55.1300 253.0000 1.0000
55.1400 276.0000 1.0000
55.1500 267.0000 1.0000
55.1600 254.0000 1.0000
55.1700 256.0000 1.0000
55.1800 279.0000 1.0000
55.1900 291.0000 1.0000
55.2000 246.0000 1.0000
55.2100 247.0000 1.0000
55.2200 242.0000 1.0000
55.2300 257.0000 1.0000
55.2400 258.0000 1.0000
55.2500 239.0000 1.0000
55.2600 253.0000 1.0000
55.2700 241.0000 1.0000
55.2800 231.0000 1.0000
55.2900 243.0000 1.0000
55.3000 263.0000 1.0000
55.3100 259.0000 1.0000
55.3200 246.0000 1.0000
55.3300 253.0000 1.0000
55.3400 264.0000 1.0000
55.3500 275.0000 1.0000
55.3600 252.0000 1.0000
55.3700 242.0000 1.0000
55.3800 262.0000 1.0000
55.3900 248.0000 1.0000
55.4000 238.0000 1.0000
55.4100 232.0000 1.0000
55.4200 250.0000 1.0000
55.4300 261.0000 1.0000
55.4400 259.0000 1.0000
55.4500 255.0000 1.0000
55.4600 223.0000 1.0000
55.4700 251.0000 1.0000
55.4800 250.0000 1.0000
55.4900 254.0000 1.0000
55.5000 263.0000 1.0000
55.5100 249.0000 1.0000
55.5200 259.0000 1.0000
55.5300 249.0000 1.0000
55.5400 254.0000 1.0000
55.5500 227.0000 1.0000
55.5600 253.0000 1.0000
55.5700 235.0000 1.0000
55.5800 248.0000 1.0000
55.5900 227.0000 1.0000
55.6000 227.0000 1.0000
55.6100 254.0000 1.0000
55.6200 237.0000 1.0000
55.6300 222.0000 1.0000
55.6400 250.0000 1.0000
55.6500 239.0000 1.0000
55.6600 250.0000 1.0000
55.6700 258.0000 1.0000
55.6800 222.0000 1.0000
55.6900 246.0000 1.0000
55.7000 247.0000 1.0000
55.7100 269.0000 1.0000
55.7200 262.0000 1.0000
55.7300 250.0000 1.0000
55.7400 249.0000 1.0000
55.7500 238.0000 1.0000
55.7600 247.0000 1.0000
55.7700 239.0000 1.0000
55.7800 267.0000 1.0000
55.7900 223.0000 1.0000
55.8000 244.0000 1.0000
55.8100 256.0000 1.0000
55.8200 226.0000 1.0000
55.8300 234.0000 1.0000
55.8400 258.0000 1.0000
55.8500 239.0000 1.0000
55.8600 237.0000 1.0000
55.8700 265.0000 1.0000
55.8800 253.0000 1.0000
55.8900 228.0000 1.0000
55.9000 258.0000 1.0000
55.9100 256.0000 1.0000
55.9200 265.0000 1.0000
55.9300 260.0000 1.0000
55.9400 218.0000 1.0000
55.9500 248.0000 1.0000
55.9600 256.0000 1.0000
55.9700 252.0000 1.0000
55.9800 250.0000 1.0000
55.9900 239.0000 1.0000
56.0000 248.0000 1.0000
56.0100 243.0000 1.0000
56.0200 262.0000 1.0000
56.0300 258.0000 1.0000
56.0400 266.0000 1.0000
56.0500 255.0000 1.0000
56.0600 258.0000 1.0000
56.0700 242.0000 1.0000
56.0800 247.0000 1.0000
56.0900 246.0000 1.0000
56.1000 262.0000 1.0000
56.1100 245.0000 1.0000
56.1200 262.0000 1.0000
56.1300 260.0000 1.0000
56.1400 248.0000 1.0000
56.1500 249.0000 1.0000
56.1600 250.0000 1.0000
56.1700 275.0000 1.0000
56.1800 269.0000 1.0000
56.1900 247.0000 1.0000
56.2000 264.0000 1.0000
56.2100 249.0000 1.0000
56.2200 241.0000 1.0000
56.2300 240.0000 1.0000
56.2400 269.0000 1.0000
56.2500 222.0000 1.0000
56.2600 233.0000 1.0000
56.2700 263.0000 1.0000
56.2800 265.0000 1.0000
56.2900 237.0000 1.0000
56.3000 219.0000 1.0000
56.3100 259.0000 1.0000
56.3200 244.0000 1.0000
56.3300 243.0000 1.0000
56.3400 234.0000 1.0000
56.3500 235.0000 1.0000
56.3600 272.0000 1.0000
56.3700 287.0000 1.0000
56.3800 272.0000 1.0000
56.3900 246.0000 1.0000
56.4000 217.0000 1.0000
56.4100 256.0000 1.0000
56.4200 232.0000 1.0000
56.4300 230.0000 1.0000
56.4400 247.0000 1.0000
56.4500 230.0000 1.0000
56.4600 237.0000 1.0000
56.4700 246.0000 1.0000
56.4800 261.0000 1.0000
56.4900 250.0000 1.0000
56.5000 237.0000 1.0000
56.5100 247.0000 1.0000
56.5200 261.0000 1.0000
56.5300 272.0000 1.0000
56.5400 264.0000 1.0000
56.5500 232.0000 1.0000
56.5600 249.0000 1.0000
56.5700 235.0000 1.0000
56.5800 253.0000 1.0000
56.5900 251.0000 1.0000
56.6000 273.0000 1.0000
56.6100 250.0000 1.0000
56.6200 252.0000 1.0000
56.6300 257.0000 1.0000
56.6400 243.0000 1.0000
56.6500 252.0000 1.0000
56.6600 251.0000 1.0000
56.6700 235.0000 1.0000
56.6800 250.0000 1.0000
56.6900 257.0000 1.0000
56.7000 245.0000 1.0000
56.7100 261.0000 1.0000
56.7200 254.0000 1.0000
56.7300 258.0000 1.0000
56.7400 252.0000 1.0000
56.7500 257.0000 1.0000
56.7600 242.0000 1.0000
56.7700 241.0000 1.0000
56.7800 265.0000 1.0000
56.7900 250.0000 1.0000
56.8000 236.0000 1.0000
56.8100 242.0000 1.0000
56.8200 245.0000 1.0000
56.8300 260.0000 1.0000
56.8400 234.0000 1.0000
56.8500 260.0000 1.0000
56.8600 244.0000 1.0000
56.8700 241.0000 1.0000
56.8800 258.0000 1.0000
56.8900 237.0000 1.0000
56.9000 261.0000 1.0000
56.9100 258.0000 1.0000
56.9200 254.0000 1.0000
56.9300 271.0000 1.0000
56.9400 244.0000 1.0000
56.9500 227.0000 1.0000
56.9600 256.0000 1.0000
56.9700 286.0000 1.0000
56.9800 235.0000 1.0000
56.9900 266.0000 1.0000
57.0000 233.0000 1.0000
57.0100 238.0000 1.0000
57.0200 253.0000 1.0000
57.0300 259.0000 1.0000
57.0400 230.0000 1.0000
57.0500 260.0000 1.0000
57.0600 243.0000 1.0000
57.0700 263.0000 1.0000
57.0800 261.0000 1.0000
57.0900 246.0000 1.0000
57.1000 223.0000 1.0000
57.1100 241.0000 1.0000
57.1200 248.0000 1.0000
57.1300 255.0000 1.0000
57.1400 241.0000 1.0000
57.1500 235.0000 1.0000
57.1600 242.0000 1.0000
57.1700 211.0000 1.0000
57.1800 237.0000 1.0000
57.1900 226.0000 1.0000
57.2000 225.0000 1.0000
57.2100 243.0000 1.0000
57.2200 228.0000 1.0000
57.2300 256.0000 1.0000
57.2400 235.0000 1.0000
57.2500 234.0000 1.0000
57.2600 237.0000 1.0000
57.2700 273.0000 1.0000
57.2800 256.0000 1.0000
57.2900 260.0000 1.0000
57.3000 236.0000 1.0000
57.3100 240.0000 1.0000
57.3200 253.0000 1.0000
57.3300 256.0000 1.0000
57.3400 264.0000 1.0000
57.3500 228.0000 1.0000
57.3600 253.0000 1.0000
57.3700 263.0000 1.0000
57.3800 238.0000 1.0000
57.3900 256.0000 1.0000
57.4000 247.0000 1.0000
57.4100 255.0000 1.0000
57.4200 243.0000 1.0000
57.4300 265.0000 1.0000
57.4400 286.0000 1.0000
57.4500 247.0000 1.0000
57.4600 254.0000 1.0000
57.4700 249.0000 1.0000
57.4800 270.0000 1.0000
57.4900 233.0000 1.0000
57.5000 245.0000 1.0000
57.5100 242.0000 1.0000
57.5200 251.0000 1.0000
57.5300 254.0000 1.0000
57.5400 290.0000 1.0000
57.5500 248.0000 1.0000
57.5600 274.0000 1.0000
57.5700 252.0000 1.0000
57.5800 256.0000 1.0000
57.5900 245.0000 1.0000
57.6000 235.0000 1.0000
57.6100 250.0000 1.0000
57.6200 274.0000 1.0000
57.6300 258.0000 1.0000
57.6400 272.0000 1.0000
57.6500 252.0000 1.0000
57.6600 276.0000 1.0000
57.6700 263.0000 1.0000
57.6800 268.0000 1.0000
57.6900 255.0000 1.0000
57.7000 236.0000 1.0000
57.7100 230.0000 1.0000
57.7200 261.0000 1.0000
57.7300 243.0000 1.0000
57.7400 251.0000 1.0000
57.7500 248.0000 1.0000
57.7600 249.0000 1.0000
57.7700 247.0000 1.0000
57.7800 260.0000 1.0000
57.7900 266.0000 1.0000
57.8000 252.0000 1.0000
57.8100 252.0000 1.0000
57.8200 248.0000 1.0000
57.8300 266.0000 1.0000
57.8400 273.0000 1.0000
57.8500 258.0000 1.0000
57.8600 264.0000 1.0000
57.8700 235.0000 1.0000
57.8800 246.0000 1.0000
57.8900 249.0000 1.0000
57.9000 245.0000 1.0000
57.9100 255.0000 1.0000
57.9200 259.0000 1.0000
57.9300 251.0000 1.0000
57.9400 267.0000 1.0000
57.9500 258.0000 1.0000
57.9600 230.0000 1.0000
57.9700 231.0000 1.0000
57.9800 254.0000 1.0000
57.9900 256.0000 1.0000
58.0000 255.0000 1.0000
58.0100 231.0000 1.0000
58.0200 253.0000 1.0000
58.0300 250.0000 1.0000
58.0400 269.0000 1.0000
58.0500 259.0000 1.0000
58.0600 215.0000 1.0000
58.0700 242.0000 1.0000
58.0800 246.0000 1.0000
58.0900 248.0000 1.0000
58.1000 227.0000 1.0000
58.1100 230.0000 1.0000
58.1200 240.0000 1.0000
58.1300 224.0000 1.0000
58.1400 260.0000 1.0000
58.1500 247.0000 1.0000
58.1600 242.0000 1.0000
58.1700 254.0000 1.0000
58.1800 217.0000 1.0000
58.1900 229.0000 1.0000
58.2000 243.0000 1.0000
58.2100 225.0000 1.0000
58.2200 238.0000 1.0000
58.2300 246.0000 1.0000
58.2400 244.0000 1.0000
58.2500 259.0000 1.0000
58.2600 253.0000 1.0000
58.2700 226.0000 1.0000
58.2800 231.0000 1.0000
58.2900 224.0000 1.0000
58.3000 233.0000 1.0000
58.3100 230.0000 1.0000
58.3200 252.0000 1.0000
58.3300 257.0000 1.0000
58.3400 225.0000 1.0000
58.3500 247.0000 1.0000
58.3600 229.0000 1.0000
58.3700 232.0000 1.0000
58.3800 234.0000 1.0000
58.3900 263.0000 1.0000
58.4000 230.0000 1.0000
58.4100 240.0000 1.0000
58.4200 240.0000 1.0000
58.4300 241.0000 1.0000
58.4400 256.0000 1.0000
58.4500 228.0000 1.0000
58.4600 246.0000 1.0000
58.4700 248.0000 1.0000
58.4800 244.0000 1.0000
58.4900 247.0000 1.0000
58.5000 251.0000 1.0000
58.5100 230.0000 1.0000
58.5200 231.0000 1.0000
58.5300 260.0000 1.0000
58.5400 229.0000 1.0000
58.5500 243.0000 1.0000
58.5600 268.0000 1.0000
58.5700 266.0000 1.0000
58.5800 272.0000 1.0000
58.5900 252.0000 1.0000
58.6000 240.0000 1.0000
58.6100 264.0000 1.0000
58.6200 230.0000 1.0000
58.6300 263.0000 1.0000
58.6400 263.0000 1.0000
58.6500 225.0000 1.0000
58.6600 229.0000 1.0000
58.6700 272.0000 1.0000
58.6800 259.0000 1.0000
58.6900 249.0000 1.0000
58.7000 230.0000 1.0000
58.7100 235.0000 1.0000
58.7200 251.0000 1.0000
58.7300 233.0000 1.0000
58.7400 244.0000 1.0000
58.7500 239.0000 1.0000
58.7600 230.0000 1.0000
58.7700 238.0000 1.0000
58.7800 235.0000 1.0000
58.7900 266.0000 1.0000
58.8000 255.0000 1.0000
58.8100 242.0000 1.0000
58.8200 233.0000 1.0000
58.8300 225.0000 1.0000
58.8400 235.0000 1.0000
58.8500 251.0000 1.0000
58.8600 235.0000 1.0000
58.8700 239.0000 1.0000
58.8800 249.0000 1.0000
58.8900 258.0000 1.0000
58.9000 255.0000 1.0000
58.9100 257.0000 1.0000
58.9200 234.0000 1.0000
58.9300 230.0000 1.0000
58.9400 239.0000 1.0000
58.9500 244.0000 1.0000
58.9600 238.0000 1.0000
58.9700 236.0000 1.0000
58.9800 246.0000 1.0000
58.9900 226.0000 1.0000
59.0000 253.0000 1.0000
59.0100 258.0000 1.0000
59.0200 255.0000 1.0000
59.0300 239.0000 1.0000
59.0400 254.0000 1.0000
59.0500 269.0000 1.0000
59.0600 245.0000 1.0000
59.0700 241.0000 1.0000
59.0800 244.0000 1.0000
59.0900 218.0000 1.0000
59.1000 241.0000 1.0000
59.1100 262.0000 1.0000
59.1200 240.0000 1.0000
59.1300 227.0000 1.0000
59.1400 254.0000 1.0000
59.1500 251.0000 1.0000
59.1600 255.0000 1.0000
59.1700 249.0000 1.0000
59.1800 256.0000 1.0000
59.1900 254.0000 1.0000
59.2000 249.0000 1.0000
59.2100 241.0000 1.0000
59.2200 260.0000 1.0000
59.2300 243.0000 1.0000
59.2400 246.0000 1.0000
59.2500 254.0000 1.0000
59.2600 245.0000 1.0000
59.2700 238.0000 1.0000
59.2800 241.0000 1.0000
59.2900 272.0000 1.0000
59.3000 246.0000 1.0000
59.3100 238.0000 1.0000
59.3200 242.0000 1.0000
59.3300 234.0000 1.0000
59.3400 269.0000 1.0000
59.3500 238.0000 1.0000
59.3600 259.0000 1.0000
59.3700 257.0000 1.0000
59.3800 248.0000 1.0000
59.3900 252.0000 1.0000
59.4000 241.0000 1.0000
59.4100 248.0000 1.0000
59.4200 252.0000 1.0000
59.4300 248.0000 1.0000
59.4400 285.0000 1.0000
59.4500 223.0000 1.0000
59.4600 253.0000 1.0000
59.4700 261.0000 1.0000
59.4800 259.0000 1.0000
59.4900 245.0000 1.0000
59.5000 239.0000 1.0000
59.5100 240.0000 1.0000
59.5200 231.0000 1.0000
59.5300 247.0000 1.0000
59.5400 236.0000 1.0000
59.5500 236.0000 1.0000
59.5600 271.0000 1.0000
59.5700 250.0000 1.0000
59.5800 240.0000 1.0000
59.5900 242.0000 1.0000
59.6000 245.0000 1.0000
59.6100 250.0000 1.0000
59.6200 227.0000 1.0000
59.6300 238.0000 1.0000
59.6400 238.0000 1.0000
59.6500 246.0000 1.0000
59.6600 233.0000 1.0000
59.6700 242.0000 1.0000
59.6800 239.0000 1.0000
59.6900 241.0000 1.0000
59.7000 240.0000 1.0000
59.7100 240.0000 1.0000
59.7200 235.0000 1.0000
59.7300 219.0000 1.0000
59.7400 253.0000 1.0000
59.7500 222.0000 1.0000
59.7600 233.0000 1.0000
59.7700 237.0000 1.0000
59.7800 249.0000 1.0000
59.7900 255.0000 1.0000
59.8000 244.0000 1.0000
59.8100 231.0000 1.0000
59.8200 214.0000 1.0000
59.8300 259.0000 1.0000
59.8400 250.0000 1.0000
59.8500 260.0000 1.0000
59.8600 243.0000 1.0000
59.8700 221.0000 1.0000
59.8800 217.0000 1.0000
59.8900 222.0000 1.0000
59.9000 232.0000 1.0000
59.9100 256.0000 1.0000
59.9200 238.0000 1.0000
59.9300 230.0000 1.0000
59.9400 237.0000 1.0000
59.9500 226.0000 1.0000
59.9600 247.0000 1.0000
59.9700 227.0000 1.0000
59.9800 252.0000 1.0000
59.9900 224.0000 1.0000
60.0000 241.0000 1.0000
60.0100 258.0000 1.0000
60.0200 244.0000 1.0000
60.0300 268.0000 1.0000
60.0400 229.0000 1.0000
60.0500 232.0000 1.0000
60.0600 248.0000 1.0000
60.0700 246.0000 1.0000
60.0800 239.0000 1.0000
60.0900 258.0000 1.0000
60.1000 253.0000 1.0000
60.1100 232.0000 1.0000
60.1200 247.0000 1.0000
60.1300 217.0000 1.0000
60.1400 215.0000 1.0000
60.1500 243.0000 1.0000
60.1600 273.0000 1.0000
60.1700 234.0000 1.0000
60.1800 236.0000 1.0000
60.1900 246.0000 1.0000
60.2000 264.0000 1.0000
60.2100 253.0000 1.0000
60.2200 240.0000 1.0000
60.2300 258.0000 1.0000
60.2400 263.0000 1.0000
60.2500 234.0000 1.0000
60.2600 251.0000 1.0000
60.2700 218.0000 1.0000
60.2800 245.0000 1.0000
60.2900 254.0000 1.0000
60.3000 248.0000 1.0000
60.3100 249.0000 1.0000
60.3200 261.0000 1.0000
60.3300 236.0000 1.0000
60.3400 235.0000 1.0000
60.3500 238.0000 1.0000
60.3600 234.0000 1.0000
60.3700 240.0000 1.0000
60.3800 243.0000 1.0000
60.3900 235.0000 1.0000
60.4000 235.0000 1.0000
60.4100 243.0000 1.0000
60.4200 277.0000 1.0000
60.4300 267.0000 1.0000
60.4400 237.0000 1.0000
60.4500 237.0000 1.0000
60.4600 241.0000 1.0000
60.4700 245.0000 1.0000
60.4800 247.0000 1.0000
60.4900 264.0000 1.0000
60.5000 233.0000 1.0000
60.5100 235.0000 1.0000
60.5200 242.0000 1.0000
60.5300 261.0000 1.0000
60.5400 252.0000 1.0000
60.5500 233.0000 1.0000
60.5600 269.0000 1.0000
60.5700 247.0000 1.0000
60.5800 279.0000 1.0000
60.5900 242.0000 1.0000
60.6000 272.0000 1.0000
60.6100 255.0000 1.0000
60.6200 230.0000 1.0000
60.6300 255.0000 1.0000
60.6400 245.0000 1.0000
60.6500 261.0000 1.0000
60.6600 249.0000 1.0000
60.6700 270.0000 1.0000
60.6800 280.0000 1.0000
60.6900 259.0000 1.0000
60.7000 256.0000 1.0000
60.7100 249.0000 1.0000
60.7200 260.0000 1.0000
60.7300 267.0000 1.0000
60.7400 252.0000 1.0000
60.7500 292.0000 1.0000
60.7600 244.0000 1.0000
60.7700 235.0000 1.0000
60.7800 254.0000 1.0000
60.7900 257.0000 1.0000
60.8000 276.0000 1.0000
60.8100 253.0000 1.0000
60.8200 266.0000 1.0000
60.8300 264.0000 1.0000
60.8400 286.0000 1.0000
60.8500 282.0000 1.0000
60.8600 261.0000 1.0000
60.8700 273.0000 1.0000
60.8800 269.0000 1.0000
60.8900 269.0000 1.0000
60.9000 280.0000 1.0000
60.9100 276.0000 1.0000
60.9200 267.0000 1.0000
60.9300 252.0000 1.0000
60.9400 281.0000 1.0000
60.9500 249.0000 1.0000
60.9600 271.0000 1.0000
60.9700 272.0000 1.0000
60.9800 252.0000 1.0000
60.9900 274.0000 1.0000
61.0000 274.0000 1.0000
61.0100 278.0000 1.0000
61.0200 268.0000 1.0000
61.0300 265.0000 1.0000
61.0400 269.0000 1.0000
61.0500 265.0000 1.0000
61.0600 312.0000 1.0000
61.0700 270.0000 1.0000
61.0800 275.0000 1.0000
61.0900 301.0000 1.0000
61.1000 280.0000 1.0000
61.1100 304.0000 1.0000
61.1200 302.0000 1.0000
61.1300 302.0000 1.0000
61.1400 271.0000 1.0000
61.1500 297.0000 1.0000
61.1600 305.0000 1.0000
61.1700 317.0000 1.0000
61.1800 274.0000 1.0000
61.1900 297.0000 1.0000
61.2000 321.0000 1.0000
61.2100 303.0000 1.0000
61.2200 314.0000 1.0000
61.2300 317.0000 1.0000
61.2400 348.0000 1.0000
61.2500 301.0000 1.0000
61.2600 301.0000 1.0000
61.2700 341.0000 1.0000
61.2800 336.0000 1.0000
61.2900 328.0000 1.0000
61.3000 342.0000 1.0000
61.3100 351.0000 1.0000
61.3200 349.0000 1.0000
61.3300 384.0000 1.0000
61.3400 392.0000 1.0000
61.3500 367.0000 1.0000
61.3600 362.0000 1.0000
61.3700 401.0000 1.0000
61.3800 394.0000 1.0000
61.3900 415.0000 1.0000
61.4000 449.0000 1.0000
61.4100 444.0000 1.0000
61.4200 426.0000 1.0000
61.4300 463.0000 1.0000
61.4400 468.0000 1.0000
61.4500 460.0000 1.0000
61.4600 484.0000 1.0000
61.4700 500.0000 1.0000
61.4800 491.0000 1.0000
61.4900 498.0000 1.0000
61.5000 498.0000 1.0000
61.5100 481.0000 1.0000
61.5200 514.0000 1.0000
61.5300 514.0000 1.0000
61.5400 520.0000 1.0000
61.5500 538.0000 1.0000
61.5600 533.0000 1.0000
61.5700 523.0000 1.0000
61.5800 541.0000 1.0000
61.5900 539.0000 1.0000
61.6000 523.0000 1.0000
61.6100 530.0000 1.0000
61.6200 517.0000 1.0000
61.6300 566.0000 1.0000
61.6400 522.0000 1.0000
61.6500 483.0000 1.0000
61.6600 510.0000 1.0000
61.6700 514.0000 1.0000
61.6800 500.0000 1.0000
61.6900 508.0000 1.0000
61.7000 480.0000 1.0000
61.7100 492.0000 1.0000
61.7200 499.0000 1.0000
61.7300 521.0000 1.0000
61.7400 464.0000 1.0000
61.7500 456.0000 1.0000
61.7600 472.0000 1.0000
61.7700 460.0000 1.0000
61.7800 421.0000 1.0000
61.7900 412.0000 1.0000
61.8000 421.0000 1.0000
61.8100 434.0000 1.0000
61.8200 407.0000 1.0000
61.8300 350.0000 1.0000
61.8400 391.0000 1.0000
61.8500 356.0000 1.0000
61.8600 373.0000 1.0000
61.8700 354.0000 1.0000
61.8800 351.0000 1.0000
61.8900 351.0000 1.0000
61.9000 357.0000 1.0000
61.9100 364.0000 1.0000
61.9200 326.0000 1.0000
61.9300 351.0000 1.0000
61.9400 343.0000 1.0000
61.9500 325.0000 1.0000
61.9600 316.0000 1.0000
61.9700 328.0000 1.0000
61.9800 320.0000 1.0000
61.9900 338.0000 1.0000
62.0000 310.0000 1.0000
62.0100 303.0000 1.0000
62.0200 310.0000 1.0000
62.0300 325.0000 1.0000
62.0400 292.0000 1.0000
62.0500 306.0000 1.0000
62.0600 293.0000 1.0000
62.0700 287.0000 1.0000
62.0800 304.0000 1.0000
62.0900 321.0000 1.0000
62.1000 286.0000 1.0000
62.1100 301.0000 1.0000
62.1200 294.0000 1.0000
62.1300 279.0000 1.0000
62.1400 293.0000 1.0000
62.1500 311.0000 1.0000
62.1600 277.0000 1.0000
62.1700 256.0000 1.0000
62.1800 282.0000 1.0000
62.1900 295.0000 1.0000
62.2000 290.0000 1.0000
62.2100 274.0000 1.0000
62.2200 300.0000 1.0000
62.2300 309.0000 1.0000
62.2400 289.0000 1.0000
62.2500 273.0000 1.0000
62.2600 279.0000 1.0000
62.2700 290.0000 1.0000
62.2800 275.0000 1.0000
62.2900 283.0000 1.0000
62.3000 288.0000 1.0000
62.3100 306.0000 1.0000
62.3200 304.0000 1.0000
62.3300 281.0000 1.0000
62.3400 320.0000 1.0000
62.3500 311.0000 1.0000
62.3600 302.0000 1.0000
62.3700 307.0000 1.0000
62.3800 290.0000 1.0000
62.3900 286.0000 1.0000
62.4000 300.0000 1.0000
62.4100 306.0000 1.0000
62.4200 290.0000 1.0000
62.4300 288.0000 1.0000
62.4400 279.0000 1.0000
62.4500 295.0000 1.0000
62.4600 287.0000 1.0000
62.4700 289.0000 1.0000
62.4800 262.0000 1.0000
62.4900 304.0000 1.0000
62.5000 267.0000 1.0000
62.5100 291.0000 1.0000
62.5200 273.0000 1.0000
62.5300 268.0000 1.0000
62.5400 283.0000 1.0000
62.5500 283.0000 1.0000
62.5600 269.0000 1.0000
62.5700 278.0000 1.0000
62.5800 268.0000 1.0000
62.5900 258.0000 1.0000
62.6000 266.0000 1.0000
62.6100 282.0000 1.0000
62.6200 276.0000 1.0000
62.6300 259.0000 1.0000
62.6400 268.0000 1.0000
62.6500 282.0000 1.0000
62.6600 247.0000 1.0000
62.6700 238.0000 1.0000
62.6800 251.0000 1.0000
62.6900 266.0000 1.0000
62.7000 236.0000 1.0000
62.7100 251.0000 1.0000
62.7200 273.0000 1.0000
62.7300 265.0000 1.0000
62.7400 255.0000 1.0000
62.7500 249.0000 1.0000
62.7600 251.0000 1.0000
62.7700 248.0000 1.0000
62.7800 240.0000 1.0000
62.7900 250.0000 1.0000
62.8000 266.0000 1.0000
62.8100 260.0000 1.0000
62.8200 242.0000 1.0000
62.8300 255.0000 1.0000
62.8400 285.0000 1.0000
62.8500 268.0000 1.0000
62.8600 253.0000 1.0000
62.8700 258.0000 1.0000
62.8800 246.0000 1.0000
62.8900 254.0000 1.0000
62.9000 258.0000 1.0000
62.9100 261.0000 1.0000
62.9200 226.0000 1.0000
62.9300 242.0000 1.0000
62.9400 231.0000 1.0000
62.9500 266.0000 1.0000
62.9600 272.0000 1.0000
62.9700 241.0000 1.0000
62.9800 238.0000 1.0000
62.9900 249.0000 1.0000
63.0000 252.0000 1.0000
63.0100 236.0000 1.0000
63.0200 253.0000 1.0000
63.0300 259.0000 1.0000
63.0400 240.0000 1.0000
63.0500 250.0000 1.0000
63.0600 235.0000 1.0000
63.0700 245.0000 1.0000
63.0800 240.0000 1.0000
63.0900 243.0000 1.0000
63.1000 224.0000 1.0000
63.1100 273.0000 1.0000
63.1200 258.0000 1.0000
63.1300 242.0000 1.0000
63.1400 251.0000 1.0000
63.1500 281.0000 1.0000
63.1600 268.0000 1.0000
63.1700 271.0000 1.0000
63.1800 254.0000 1.0000
63.1900 255.0000 1.0000
63.2000 262.0000 1.0000
63.2100 264.0000 1.0000
63.2200 235.0000 1.0000
63.2300 258.0000 1.0000
63.2400 239.0000 1.0000
63.2500 232.0000 1.0000
63.2600 235.0000 1.0000
63.2700 234.0000 1.0000
63.2800 259.0000 1.0000
63.2900 256.0000 1.0000
63.3000 245.0000 1.0000
63.3100 254.0000 1.0000
63.3200 234.0000 1.0000
63.3300 238.0000 1.0000
63.3400 265.0000 1.0000
63.3500 259.0000 1.0000
63.3600 244.0000 1.0000
63.3700 271.0000 1.0000
63.3800 246.0000 1.0000
63.3900 214.0000 1.0000
63.4000 241.0000 1.0000
63.4100 241.0000 1.0000
63.4200 237.0000 1.0000
63.4300 237.0000 1.0000
63.4400 254.0000 1.0000
63.4500 285.0000 1.0000
63.4600 265.0000 1.0000
63.4700 248.0000 1.0000
63.4800 268.0000 1.0000
63.4900 241.0000 1.0000
63.5000 238.0000 1.0000
63.5100 259.0000 1.0000
63.5200 238.0000 1.0000
63.5300 238.0000 1.0000
63.5400 268.0000 1.0000
63.5500 257.0000 1.0000
63.5600 248.0000 1.0000
63.5700 253.0000 1.0000
63.5800 241.0000 1.0000
63.5900 269.0000 1.0000
63.6000 248.0000 1.0000
63.6100 259.0000 1.0000
63.6200 272.0000 1.0000
63.6300 245.0000 1.0000
63.6400 253.0000 1.0000
63.6500 255.0000 1.0000
63.6600 261.0000 1.0000
63.6700 267.0000 1.0000
63.6800 257.0000 1.0000
63.6900 263.0000 1.0000
63.7000 253.0000 1.0000
63.7100 256.0000 1.0000
63.7200 258.0000 1.0000
63.7300 269.0000 1.0000
63.7400 259.0000 1.0000
63.7500 240.0000 1.0000
63.7600 262.0000 1.0000
63.7700 251.0000 1.0000
63.7800 262.0000 1.0000
63.7900 233.0000 1.0000
63.8000 293.0000 1.0000
63.8100 268.0000 1.0000
63.8200 269.0000 1.0000
63.8300 278.0000 1.0000
63.8400 282.0000 1.0000
63.8500 287.0000 1.0000
63.8600 300.0000 1.0000
63.8700 271.0000 1.0000
63.8800 265.0000 1.0000
63.8900 307.0000 1.0000
63.9000 298.0000 1.0000
63.9100 302.0000 1.0000
63.9200 294.0000 1.0000
63.9300 301.0000 1.0000
63.9400 299.0000 1.0000
63.9500 289.0000 1.0000
63.9600 318.0000 1.0000
63.9700 267.0000 1.0000
63.9800 307.0000 1.0000
63.9900 299.0000 1.0000
64.0000 278.0000 1.0000
64.0100 277.0000 1.0000
64.0200 307.0000 1.0000
64.0300 297.0000 1.0000
64.0400 261.0000 1.0000
64.0500 277.0000 1.0000
64.0600 280.0000 1.0000
64.0700 287.0000 1.0000
64.0800 273.0000 1.0000
64.0900 291.0000 1.0000
64.1000 289.0000 1.0000
64.1100 263.0000 1.0000
64.1200 280.0000 1.0000
64.1300 254.0000 1.0000
64.1400 288.0000 1.0000
64.1500 290.0000 1.0000
64.1600 274.0000 1.0000
64.1700 252.0000 1.0000
64.1800 253.0000 1.0000
64.1900 297.0000 1.0000
64.2000 282.0000 1.0000
64.2100 277.0000 1.0000
64.2200 280.0000 1.0000
64.2300 260.0000 1.0000
64.2400 244.0000 1.0000
64.2500 277.0000 1.0000
64.2600 238.0000 1.0000
64.2700 266.0000 1.0000
64.2800 241.0000 1.0000
64.2900 270.0000 1.0000
64.3000 289.0000 1.0000
64.3100 258.0000 1.0000
64.3200 258.0000 1.0000
64.3300 262.0000 1.0000
64.3400 251.0000 1.0000
64.3500 248.0000 1.0000
64.3600 259.0000 1.0000
64.3700 284.0000 1.0000
64.3800 259.0000 1.0000
64.3900 244.0000 1.0000
64.4000 264.0000 1.0000
64.4100 240.0000 1.0000
64.4200 230.0000 1.0000
64.4300 259.0000 1.0000
64.4400 245.0000 1.0000
64.4500 243.0000 1.0000
64.4600 247.0000 1.0000
64.4700 254.0000 1.0000
64.4800 249.0000 1.0000
64.4900 250.0000 1.0000
64.5000 246.0000 1.0000
64.5100 250.0000 1.0000
64.5200 268.0000 1.0000
64.5300 253.0000 1.0000
64.5400 244.0000 1.0000
64.5500 268.0000 1.0000
64.5600 254.0000 1.0000
64.5700 276.0000 1.0000
64.5800 248.0000 1.0000
64.5900 243.0000 1.0000
64.6000 267.0000 1.0000
64.6100 259.0000 1.0000
64.6200 252.0000 1.0000
64.6300 274.0000 1.0000
64.6400 230.0000 1.0000
64.6500 245.0000 1.0000
64.6600 262.0000 1.0000
64.6700 294.0000 1.0000
64.6800 266.0000 1.0000
64.6900 268.0000 1.0000
64.7000 277.0000 1.0000
64.7100 261.0000 1.0000
64.7200 280.0000 1.0000
64.7300 232.0000 1.0000
64.7400 281.0000 1.0000
64.7500 268.0000 1.0000
64.7600 269.0000 1.0000
64.7700 275.0000 1.0000
64.7800 259.0000 1.0000
64.7900 270.0000 1.0000
64.8000 287.0000 1.0000
64.8100 239.0000 1.0000
64.8200 264.0000 1.0000
64.8300 273.0000 1.0000
64.8400 240.0000 1.0000
64.8500 248.0000 1.0000
64.8600 243.0000 1.0000
64.8700 277.0000 1.0000
64.8800 299.0000 1.0000
64.8900 273.0000 1.0000
64.9000 260.0000 1.0000
64.9100 233.0000 1.0000
64.9200 287.0000 1.0000
64.9300 273.0000 1.0000
64.9400 294.0000 1.0000
64.9500 290.0000 1.0000
64.9600 283.0000 1.0000
64.9700 268.0000 1.0000
64.9800 284.0000 1.0000
64.9900 280.0000 1.0000
65.0000 291.0000 1.0000
65.0100 290.0000 1.0000
65.0200 323.0000 1.0000
65.0300 289.0000 1.0000
65.0400 294.0000 1.0000
65.0500 278.0000 1.0000
65.0600 327.0000 1.0000
65.0700 311.0000 1.0000
65.0800 283.0000 1.0000
65.0900 303.0000 1.0000
65.1000 298.0000 1.0000
65.1100 312.0000 1.0000
65.1200 320.0000 1.0000
65.1300 306.0000 1.0000
65.1400 318.0000 1.0000
65.1500 305.0000 1.0000
65.1600 334.0000 1.0000
65.1700 336.0000 1.0000
65.1800 346.0000 1.0000
65.1900 343.0000 1.0000
65.2000 383.0000 1.0000
65.2100 367.0000 1.0000
65.2200 354.0000 1.0000
65.2300 358.0000 1.0000
65.2400 422.0000 1.0000
65.2500 393.0000 1.0000
65.2600 424.0000 1.0000
65.2700 395.0000 1.0000
65.2800 425.0000 1.0000
65.2900 444.0000 1.0000
65.3000 458.0000 1.0000
65.3100 449.0000 1.0000
65.3200 465.0000 1.0000
65.3300 523.0000 1.0000
65.3400 548.0000 1.0000
65.3500 528.0000 1.0000
65.3600 546.0000 1.0000
65.3700 605.0000 1.0000
65.3800 618.0000 1.0000
65.3900 660.0000 1.0000
65.4000 679.0000 1.0000
65.4100 693.0000 1.0000
65.4200 762.0000 1.0000
65.4300 716.0000 1.0000
65.4400 767.0000 1.0000
65.4500 744.0000 1.0000
65.4600 779.0000 1.0000
65.4700 787.0000 1.0000
65.4800 789.0000 1.0000
65.4900 802.0000 1.0000
65.5000 801.0000 1.0000
65.5100 774.0000 1.0000
65.5200 794.0000 1.0000
65.5300 760.0000 1.0000
65.5400 753.0000 1.0000
65.5500 717.0000 1.0000
65.5600 731.0000 1.0000
65.5700 688.0000 1.0000
65.5800 729.0000 1.0000
65.5900 705.0000 1.0000
65.6000 743.0000 1.0000
65.6100 661.0000 1.0000
65.6200 661.0000 1.0000
65.6300 666.0000 1.0000
65.6400 672.0000 1.0000
65.6500 644.0000 1.0000
65.6600 611.0000 1.0000
65.6700 585.0000 1.0000
65.6800 608.0000 1.0000
65.6900 579.0000 1.0000
65.7000 568.0000 1.0000
65.7100 565.0000 1.0000
65.7200 557.0000 1.0000
65.7300 551.0000 1.0000
65.7400 535.0000 1.0000
65.7500 526.0000 1.0000
65.7600 459.0000 1.0000
65.7700 497.0000 1.0000
65.7800 453.0000 1.0000
65.7900 436.0000 1.0000
65.8000 440.0000 1.0000
65.8100 448.0000 1.0000
65.8200 381.0000 1.0000
65.8300 411.0000 1.0000
65.8400 422.0000 1.0000
65.8500 359.0000 1.0000
65.8600 375.0000 1.0000
65.8700 365.0000 1.0000
65.8800 335.0000 1.0000
65.8900 356.0000 1.0000
65.9000 329.0000 1.0000
65.9100 316.0000 1.0000
65.9200 355.0000 1.0000
65.9300 311.0000 1.0000
65.9400 302.0000 1.0000
65.9500 300.0000 1.0000
65.9600 283.0000 1.0000
65.9700 298.0000 1.0000
65.9800 290.0000 1.0000
65.9900 339.0000 1.0000
66.0000 283.0000 1.0000
66.0100 315.0000 1.0000
66.0200 299.0000 1.0000
66.0300 296.0000 1.0000
66.0400 274.0000 1.0000
66.0500 271.0000 1.0000
66.0600 285.0000 1.0000
66.0700 296.0000 1.0000
66.0800 257.0000 1.0000
66.0900 276.0000 1.0000
66.1000 295.0000 1.0000
66.1100 290.0000 1.0000
66.1200 279.0000 1.0000
66.1300 281.0000 1.0000
66.1400 279.0000 1.0000
66.1500 276.0000 1.0000
66.1600 260.0000 1.0000
66.1700 262.0000 1.0000
66.1800 310.0000 1.0000
66.1900 307.0000 1.0000
66.2000 263.0000 1.0000
66.2100 244.0000 1.0000
66.2200 263.0000 1.0000
66.2300 285.0000 1.0000
66.2400 257.0000 1.0000
66.2500 263.0000 1.0000
66.2600 266.0000 1.0000
66.2700 254.0000 1.0000
66.2800 274.0000 1.0000
66.2900 279.0000 1.0000
66.3000 286.0000 1.0000
66.3100 257.0000 1.0000
66.3200 254.0000 1.0000
66.3300 229.0000 1.0000
66.3400 258.0000 1.0000
66.3500 264.0000 1.0000
66.3600 268.0000 1.0000
66.3700 263.0000 1.0000
66.3800 249.0000 1.0000
66.3900 257.0000 1.0000
66.4000 231.0000 1.0000
66.4100 246.0000 1.0000
66.4200 250.0000 1.0000
66.4300 257.0000 1.0000
66.4400 230.0000 1.0000
66.4500 270.0000 1.0000
66.4600 250.0000 1.0000
66.4700 228.0000 1.0000
66.4800 237.0000 1.0000
66.4900 230.0000 1.0000
66.5000 239.0000 1.0000
66.5100 249.0000 1.0000
66.5200 232.0000 1.0000
66.5300 233.0000 1.0000
66.5400 259.0000 1.0000
66.5500 247.0000 1.0000
66.5600 222.0000 1.0000
66.5700 218.0000 1.0000
66.5800 254.0000 1.0000
66.5900 247.0000 1.0000
66.6000 261.0000 1.0000
66.6100 237.0000 1.0000
66.6200 244.0000 1.0000
66.6300 250.0000 1.0000
66.6400 207.0000 1.0000
66.6500 226.0000 1.0000
66.6600 222.0000 1.0000
66.6700 233.0000 1.0000
66.6800 217.0000 1.0000
66.6900 251.0000 1.0000
66.7000 218.0000 1.0000
66.7100 218.0000 1.0000
66.7200 236.0000 1.0000
66.7300 228.0000 1.0000
66.7400 250.0000 1.0000
66.7500 239.0000 1.0000
66.7600 227.0000 1.0000
66.7700 232.0000 1.0000
66.7800 221.0000 1.0000
66.7900 239.0000 1.0000
66.8000 228.0000 1.0000
66.8100 244.0000 1.0000
66.8200 237.0000 1.0000
66.8300 252.0000 1.0000
66.8400 242.0000 1.0000
66.8500 237.0000 1.0000
66.8600 223.0000 1.0000
66.8700 235.0000 1.0000
66.8800 251.0000 1.0000
66.8900 236.0000 1.0000
66.9000 232.0000 1.0000
66.9100 219.0000 1.0000
66.9200 248.0000 1.0000
66.9300 259.0000 1.0000
66.9400 241.0000 1.0000
66.9500 237.0000 1.0000
66.9600 218.0000 1.0000
66.9700 215.0000 1.0000
66.9800 248.0000 1.0000
66.9900 251.0000 1.0000
67.0000 241.0000 1.0000
67.0100 238.0000 1.0000
67.0200 249.0000 1.0000
67.0300 256.0000 1.0000
67.0400 231.0000 1.0000
67.0500 231.0000 1.0000
67.0600 240.0000 1.0000
67.0700 239.0000 1.0000
67.0800 248.0000 1.0000
67.0900 223.0000 1.0000
67.1000 244.0000 1.0000
67.1100 213.0000 1.0000
67.1200 210.0000 1.0000
67.1300 254.0000 1.0000
67.1400 221.0000 1.0000
67.1500 220.0000 1.0000
67.1600 208.0000 1.0000
67.1700 247.0000 1.0000
67.1800 246.0000 1.0000
67.1900 219.0000 1.0000
67.2000 220.0000 1.0000
67.2100 252.0000 1.0000
67.2200 235.0000 1.0000
67.2300 224.0000 1.0000
67.2400 236.0000 1.0000
67.2500 212.0000 1.0000
67.2600 224.0000 1.0000
67.2700 235.0000 1.0000
67.2800 236.0000 1.0000
67.2900 258.0000 1.0000
67.3000 227.0000 1.0000
67.3100 221.0000 1.0000
67.3200 234.0000 1.0000
67.3300 229.0000 1.0000
67.3400 240.0000 1.0000
67.3500 234.0000 1.0000
67.3600 248.0000 1.0000
67.3700 234.0000 1.0000
67.3800 228.0000 1.0000
67.3900 245.0000 1.0000
67.4000 230.0000 1.0000
67.4100 227.0000 1.0000
67.4200 219.0000 1.0000
67.4300 229.0000 1.0000
67.4400 222.0000 1.0000
67.4500 238.0000 1.0000
67.4600 223.0000 1.0000
67.4700 231.0000 1.0000
67.4800 232.0000 1.0000
67.4900 227.0000 1.0000
67.5000 219.0000 1.0000
67.5100 219.0000 1.0000
67.5200 238.0000 1.0000
67.5300 212.0000 1.0000
67.5400 213.0000 1.0000
67.5500 212.0000 1.0000
67.5600 217.0000 1.0000
67.5700 227.0000 1.0000
67.5800 196.0000 1.0000
67.5900 206.0000 1.0000
67.6000 215.0000 1.0000
67.6100 220.0000 1.0000
67.6200 209.0000 1.0000
67.6300 233.0000 1.0000
67.6400 211.0000 1.0000
67.6500 219.0000 1.0000
67.6600 206.0000 1.0000
67.6700 230.0000 1.0000
67.6800 220.0000 1.0000
67.6900 233.0000 1.0000
67.7000 205.0000 1.0000
67.7100 234.0000 1.0000
67.7200 238.0000 1.0000
67.7300 221.0000 1.0000
67.7400 199.0000 1.0000
67.7500 196.0000 1.0000
67.7600 209.0000 1.0000
67.7700 224.0000 1.0000
67.7800 212.0000 1.0000
67.7900 223.0000 1.0000
67.8000 224.0000 1.0000
67.8100 231.0000 1.0000
67.8200 224.0000 1.0000
67.8300 224.0000 1.0000
67.8400 235.0000 1.0000
67.8500 222.0000 1.0000
67.8600 236.0000 1.0000
67.8700 224.0000 1.0000
67.8800 215.0000 1.0000
67.8900 193.0000 1.0000
67.9000 212.0000 1.0000
67.9100 223.0000 1.0000
67.9200 203.0000 1.0000
67.9300 222.0000 1.0000
67.9400 236.0000 1.0000
67.9500 212.0000 1.0000
67.9600 225.0000 1.0000
67.9700 212.0000 1.0000
67.9800 210.0000 1.0000
67.9900 211.0000 1.0000
68.0000 203.0000 1.0000
68.0100 221.0000 1.0000
68.0200 234.0000 1.0000
68.0300 219.0000 1.0000
68.0400 239.0000 1.0000
68.0500 240.0000 1.0000
68.0600 205.0000 1.0000
68.0700 199.0000 1.0000
68.0800 216.0000 1.0000
68.0900 224.0000 1.0000
68.1000 237.0000 1.0000
68.1100 241.0000 1.0000
68.1200 224.0000 1.0000
68.1300 219.0000 1.0000
68.1400 232.0000 1.0000
68.1500 222.0000 1.0000
68.1600 218.0000 1.0000
68.1700 215.0000 1.0000
68.1800 225.0000 1.0000
68.1900 227.0000 1.0000
68.2000 234.0000 1.0000
68.2100 207.0000 1.0000
68.2200 203.0000 1.0000
68.2300 232.0000 1.0000
68.2400 201.0000 1.0000
68.2500 213.0000 1.0000
68.2600 226.0000 1.0000
68.2700 207.0000 1.0000
68.2800 203.0000 1.0000
68.2900 192.0000 1.0000
68.3000 219.0000 1.0000
68.3100 242.0000 1.0000
68.3200 233.0000 1.0000
68.3300 234.0000 1.0000
68.3400 210.0000 1.0000
68.3500 214.0000 1.0000
68.3600 217.0000 1.0000
68.3700 206.0000 1.0000
68.3800 222.0000 1.0000
68.3900 227.0000 1.0000
68.4000 223.0000 1.0000
68.4100 213.0000 1.0000
68.4200 227.0000 1.0000
68.4300 212.0000 1.0000
68.4400 219.0000 1.0000
68.4500 206.0000 1.0000
68.4600 217.0000 1.0000
68.4700 206.0000 1.0000
68.4800 220.0000 1.0000
68.4900 229.0000 1.0000
68.5000 233.0000 1.0000
68.5100 194.0000 1.0000
68.5200 205.0000 1.0000
68.5300 217.0000 1.0000
68.5400 209.0000 1.0000
68.5500 214.0000 1.0000
68.5600 220.0000 1.0000
68.5700 211.0000 1.0000
68.5800 191.0000 1.0000
68.5900 234.0000 1.0000
68.6000 233.0000 1.0000
68.6100 225.0000 1.0000
68.6200 204.0000 1.0000
68.6300 226.0000 1.0000
68.6400 206.0000 1.0000
68.6500 236.0000 1.0000
68.6600 215.0000 1.0000
68.6700 228.0000 1.0000
68.6800 207.0000 1.0000
68.6900 228.0000 1.0000
68.7000 213.0000 1.0000
68.7100 222.0000 1.0000
68.7200 226.0000 1.0000
68.7300 208.0000 1.0000
68.7400 187.0000 1.0000
68.7500 216.0000 1.0000
68.7600 205.0000 1.0000
68.7700 218.0000 1.0000
68.7800 209.0000 1.0000
68.7900 242.0000 1.0000
68.8000 228.0000 1.0000
68.8100 225.0000 1.0000
68.8200 237.0000 1.0000
68.8300 227.0000 1.0000
68.8400 224.0000 1.0000
68.8500 218.0000 1.0000
68.8600 233.0000 1.0000
68.8700 210.0000 1.0000
68.8800 224.0000 1.0000
68.8900 224.0000 1.0000
68.9000 218.0000 1.0000
68.9100 208.0000 1.0000
68.9200 226.0000 1.0000
68.9300 232.0000 1.0000
68.9400 204.0000 1.0000
68.9500 197.0000 1.0000
68.9600 199.0000 1.0000
68.9700 211.0000 1.0000
68.9800 203.0000 1.0000
68.9900 216.0000 1.0000
69.0000 205.0000 1.0000
69.0100 218.0000 1.0000
69.0200 228.0000 1.0000
69.0300 249.0000 1.0000
69.0400 204.0000 1.0000
69.0500 214.0000 1.0000
69.0600 211.0000 1.0000
69.0700 214.0000 1.0000
69.0800 226.0000 1.0000
69.0900 208.0000 1.0000
69.1000 208.0000 1.0000
69.1100 247.0000 1.0000
69.1200 235.0000 1.0000
69.1300 193.0000 1.0000
69.1400 216.0000 1.0000
69.1500 220.0000 1.0000
69.1600 222.0000 1.0000
69.1700 205.0000 1.0000
69.1800 215.0000 1.0000
69.1900 215.0000 1.0000
69.2000 217.0000 1.0000
69.2100 216.0000 1.0000
69.2200 214.0000 1.0000
69.2300 217.0000 1.0000
69.2400 230.0000 1.0000
69.2500 209.0000 1.0000
69.2600 197.0000 1.0000
69.2700 199.0000 1.0000
69.2800 212.0000 1.0000
69.2900 225.0000 1.0000
69.3000 223.0000 1.0000
69.3100 222.0000 1.0000
69.3200 209.0000 1.0000
69.3300 198.0000 1.0000
69.3400 205.0000 1.0000
69.3500 203.0000 1.0000
69.3600 210.0000 1.0000
69.3700 216.0000 1.0000
69.3800 216.0000 1.0000
69.3900 219.0000 1.0000
69.4000 206.0000 1.0000
69.4100 179.0000 1.0000
69.4200 200.0000 1.0000
69.4300 200.0000 1.0000
69.4400 221.0000 1.0000
69.4500 209.0000 1.0000
69.4600 235.0000 1.0000
69.4700 218.0000 1.0000
69.4800 211.0000 1.0000
69.4900 192.0000 1.0000
69.5000 213.0000 1.0000
69.5100 205.0000 1.0000
69.5200 204.0000 1.0000
69.5300 212.0000 1.0000
69.5400 240.0000 1.0000
69.5500 227.0000 1.0000
69.5600 211.0000 1.0000
69.5700 201.0000 1.0000
69.5800 188.0000 1.0000
69.5900 195.0000 1.0000
69.6000 218.0000 1.0000
69.6100 202.0000 1.0000
69.6200 217.0000 1.0000
69.6300 200.0000 1.0000
69.6400 182.0000 1.0000
69.6500 203.0000 1.0000
69.6600 192.0000 1.0000
69.6700 207.0000 1.0000
69.6800 214.0000 1.0000
69.6900 215.0000 1.0000
69.7000 206.0000 1.0000
69.7100 216.0000 1.0000
69.7200 212.0000 1.0000
69.7300 209.0000 1.0000
69.7400 218.0000 1.0000
69.7500 204.0000 1.0000
69.7600 213.0000 1.0000
69.7700 215.0000 1.0000
69.7800 209.0000 1.0000
69.7900 200.0000 1.0000
69.8000 192.0000 1.0000
69.8100 216.0000 1.0000
69.8200 232.0000 1.0000
69.8300 213.0000 1.0000
69.8400 212.0000 1.0000
69.8500 211.0000 1.0000
69.8600 234.0000 1.0000
69.8700 199.0000 1.0000
69.8800 214.0000 1.0000
69.8900 216.0000 1.0000
69.9000 197.0000 1.0000
69.9100 172.0000 1.0000
69.9200 236.0000 1.0000
69.9300 215.0000 1.0000
69.9400 213.0000 1.0000
69.9500 245.0000 1.0000
69.9600 214.0000 1.0000
69.9700 221.0000 1.0000
69.9800 196.0000 1.0000
69.9900 225.0000 1.0000
70.0000 205.0000 1.0000
*RAS_INT_END
*RAS_TEMPERATURE_START
*RAS_TEMPERATURE_END
*RAS_DATA_END
