*RAS_DATA_START
*RAS_HEADER_START
*DISP_FMT_X "%.2f"
*DISP_FMT_Y "%.0f"
*DISP_FULLSCALE "14250.0000000000"
*DISP_LINE_COLOR "255.0000000000"
*DISP_LINE_STYLE "0.0000000000"
*DISP_LINE_WIDTH "0.2500000000"
*DISP_NOTE "測定データ-6"
*DISP_OFFSET_Y "0.0000000000"
*DISP_PEAKSEARCH_UNIT_Y "cps"
*DISP_RANGE_BOTTOM "0.0000000000"
*DISP_RANGE_LEFT "20.0000000000"
*DISP_RANGE_LOGCUTOFF "0.0100000000"
*DISP_RANGE_RIGHT "70.0000000000"
*DISP_RANGE_TOP "14250.0000000000"
*DISP_SCALE_MODE_Y "0.0000000000"
*DISP_TAB_NAME "2θ/θ"
*DISP_TITLE_Y "強度"
*DISP_UNIT_Y "cps"
*DISP_WINDOW_NAME "MSG_MACROENGINE"
*FILE_COMMENT " "
*FILE_MD5 ""
*FILE_MEMO " "
*FILE_OPERATOR "Administrator"
*FILE_SAMPLE " "
*FILE_TYPE "RAS_RAW"
*FILE_USERGROUP "システムマネージャ"
*FILE_VERSION "1.0000000000"
*HW_ATTACHMENT_ID "ATT0025"
*HW_ATTACHMENT_NAME "標準|Standard"
*HW_COUNTER_ID-0 "CUT0025"
*HW_COUNTER_ID-1 "CUT0020"
*HW_COUNTER_ID-2 "CUT0020"
*HW_COUNTER_ID-3 "CSL0021"
*HW_COUNTER_ID-4 "CMC0021"
*HW_COUNTER_NAME-0 "D/teX Ultra|D/teX Ultra"
*HW_COUNTER_NAME-1 "None|None"
*HW_COUNTER_NAME-2 "None|None"
*HW_COUNTER_NAME-3 "BBM|BBM"
*HW_COUNTER_NAME-4 "検出器モノクロメータ|Detector monochromator"
*HW_COUNTER_SELECT_NAME "D/teX Ultra|D/teX Ultra"
*HW_GONIOMETER_ID "GON0023"
*HW_GONIOMETER_NAME "SmartLab|SmartLab"
*HW_GONIOMETER_RADIUS-0 "90.0"
*HW_GONIOMETER_RADIUS-1 "114.0"
*HW_GONIOMETER_RADIUS-2 "190.0"
*HW_GONIOMETER_RADIUS-3 "300.0"
*HW_GONIOMETER_RADIUS-4 "187.0"
*HW_GONIOMETER_RADIUS-5 "300.0"
*HW_GONIOMETER_RADIUS-6 "113.0"
*HW_GONIOMETER_RADIUS-7 "331.0"
*HW_I_OPT_ID-0 "CBO0021"
*HW_I_OPT_ID-1 "ICR0023"
*HW_I_OPT_ID-2 "ISL0021"
*HW_I_OPT_ID-3 "ISO0021"
*HW_I_OPT_ID-4 "IAD0021"
*HW_I_OPT_ID-5 "IPR0001"
*HW_I_OPT_NAME-0 "CBOユニット|CBO unit"
*HW_I_OPT_NAME-1 "標準入射光学ユニット|Standard incident optical unit"
*HW_I_OPT_NAME-2 "標準入射スリットボックス|Standard incident slit box"
*HW_I_OPT_NAME-3 "入射平行スリット|Incident parallel slit"
*HW_I_OPT_NAME-4 "長手制限スリット|Length limiting slit"
*HW_I_OPT_NAME-5 "None|None"
*HW_R_ATTENUATER_AUTOMODE "0"
*HW_R_OPT_ID-0 "RSS0021"
*HW_R_OPT_ID-1 "RCR0023"
*HW_R_OPT_ID-2 "RSO0021"
*HW_R_OPT_ID-3 "RRS0021"
*HW_R_OPT_ID-4 "ATN0021"
*HW_R_OPT_ID-5 "RFL0021"
*HW_R_OPT_ID-6 "RAD0021"
*HW_R_OPT_NAME-0 "標準受光スリットボックス1|Standard receiving slit box # 1"
*HW_R_OPT_NAME-1 "標準受光光学ユニット1|Standard receiving unit # 1"
*HW_R_OPT_NAME-2 "標準受光光学ユニット2|Standard receiving optical unit # 2"
*HW_R_OPT_NAME-3 "標準受光スリットボックス2|Standard receiving slit box # 2"
*HW_R_OPT_NAME-4 "標準アッテネータ|Standard Attenuator"
*HW_R_OPT_NAME-5 "Cu Kβ|Cu K-beta"
*HW_R_OPT_NAME-6 "調整用受光スリット|Alignment receiving slit"
*HW_SAMPLE_HOLDER_ID "SMP0023"
*HW_SAMPLE_HOLDER_NAME "標準Zステージ|Standard Z stage"
*HW_XG_CURRENT_MAX "50"
*HW_XG_CURRENT_MIN "2"
*HW_XG_CURRENT_RESOLUTION "1"
*HW_XG_CURRENT_UNIT "mA"
*HW_XG_FOCUS "1mm x 10mm"
*HW_XG_FOCUS_TYPE "Normal"
*HW_XG_ID ""
*HW_XG_NAME "3kW 封入管(ID:1200)|3kW Sealed tube(ID:1200)"
*HW_XG_TARGET_ATOMIC_NUMBER "29.0000000000"
*HW_XG_TARGET_NAME "Cu"
*HW_XG_TYPE "Hermetic"
*HW_XG_VOLTAGE_MAX "60"
*HW_XG_VOLTAGE_MIN "20"
*HW_XG_VOLTAGE_RESOLUTION "1"
*HW_XG_VOLTAGE_UNIT "kV"
*HW_XG_WATT_MAX "1.500"
*HW_XG_WATT_UNIT "kW"
*HW_XG_WAVE_LENGTH_ALPHA1 "1.540593"
*HW_XG_WAVE_LENGTH_ALPHA2 "1.544414"
*HW_XG_WAVE_LENGTH_BETA "1.392250"
*MEAS_COND_AXIS_NAME-0 "2θ/θ"
*MEAS_COND_AXIS_NAME-1 "2θ"
*MEAS_COND_AXIS_NAME-2 "ω"
*MEAS_COND_AXIS_NAME-3 "Z"
*MEAS_COND_AXIS_NAME-4 "2θ/ω"
*MEAS_COND_AXIS_NAME-5 "θs"
*MEAS_COND_AXIS_NAME-6 "θd"
*MEAS_COND_AXIS_NAME-7 "Ts"
*MEAS_COND_AXIS_NAME-8 "CBO選択スリット"
*MEAS_COND_AXIS_NAME-9 "M"
*MEAS_COND_AXIS_NAME-10 "入射平行スリット"
*MEAS_COND_AXIS_NAME-11 "入射スリット"
*MEAS_COND_AXIS_NAME-12 ""
*MEAS_COND_AXIS_NAME-13 "Zs"
*MEAS_COND_AXIS_NAME-14 "入射光学素子"
*MEAS_COND_AXIS_NAME-15 "長手制限スリット"
*MEAS_COND_AXIS_NAME-16 "センタースリット"
*MEAS_COND_AXIS_NAME-17 "フィルター"
*MEAS_COND_AXIS_NAME-18 "受光スリット1"
*MEAS_COND_AXIS_NAME-19 "受光スリット2"
*MEAS_COND_AXIS_NAME-20 "受光光学素子"
*MEAS_COND_AXIS_NAME-21 "受光平行スリット"
*MEAS_COND_AXIS_NAME-22 "調整用受光スリット"
*MEAS_COND_AXIS_NAME-23 ""
*MEAS_COND_AXIS_NAME-24 ""
*MEAS_COND_AXIS_NAME-25 "Zd"
*MEAS_COND_AXIS_NAME-26 "アッテネータ"
*MEAS_COND_AXIS_NAME-27 "検出器モノクロメータ"
*MEAS_COND_AXIS_NAME-28 "モノクロメータスリット"
*MEAS_COND_AXIS_NAME-29 "プライマリビーム"
*MEAS_COND_AXIS_NAME-30 "PHA"
*MEAS_COND_AXIS_NAME_INTERNAL-0 "TwoThetaTheta"
*MEAS_COND_AXIS_NAME_INTERNAL-1 "TwoTheta"
*MEAS_COND_AXIS_NAME_INTERNAL-2 "Omega"
*MEAS_COND_AXIS_NAME_INTERNAL-3 "Z"
*MEAS_COND_AXIS_NAME_INTERNAL-4 "TwoThetaOmega"
*MEAS_COND_AXIS_NAME_INTERNAL-5 "ThetaS"
*MEAS_COND_AXIS_NAME_INTERNAL-6 "ThetaD"
*MEAS_COND_AXIS_NAME_INTERNAL-7 "Ts"
*MEAS_COND_AXIS_NAME_INTERNAL-8 "CBO"
*MEAS_COND_AXIS_NAME_INTERNAL-9 "CBO-M"
*MEAS_COND_AXIS_NAME_INTERNAL-10 "IncidentSollerSlit"
*MEAS_COND_AXIS_NAME_INTERNAL-11 "IncidentSlitBox"
*MEAS_COND_AXIS_NAME_INTERNAL-12 "IncidentSlitBox-_Axis"
*MEAS_COND_AXIS_NAME_INTERNAL-13 "Zs"
*MEAS_COND_AXIS_NAME_INTERNAL-14 "IncidentMonochromator"
*MEAS_COND_AXIS_NAME_INTERNAL-15 "IncidentAxdSlit"
*MEAS_COND_AXIS_NAME_INTERNAL-16 "CenterSlit"
*MEAS_COND_AXIS_NAME_INTERNAL-17 "Filter"
*MEAS_COND_AXIS_NAME_INTERNAL-18 "ReceivingSlitBox1"
*MEAS_COND_AXIS_NAME_INTERNAL-19 "ReceivingSlitBox2"
*MEAS_COND_AXIS_NAME_INTERNAL-20 "ReceivingOptics"
*MEAS_COND_AXIS_NAME_INTERNAL-21 "ReceivingSollerSlit"
*MEAS_COND_AXIS_NAME_INTERNAL-22 "ReceivingAxdSlit"
*MEAS_COND_AXIS_NAME_INTERNAL-23 "ReceivingSlitBox1-_Axis"
*MEAS_COND_AXIS_NAME_INTERNAL-24 "ReceivingSlitBox2-_Axis"
*MEAS_COND_AXIS_NAME_INTERNAL-25 "ReceivingSlitBox2-Zd"
*MEAS_COND_AXIS_NAME_INTERNAL-26 "Attenuator"
*MEAS_COND_AXIS_NAME_INTERNAL-27 "CounterMonochromator"
*MEAS_COND_AXIS_NAME_INTERNAL-28 "CounterSlit"
*MEAS_COND_AXIS_NAME_INTERNAL-29 "IncidentPrimary"
*MEAS_COND_AXIS_NAME_INTERNAL-30 "PHA"
*MEAS_COND_AXIS_NAME_MAGICNO-0 "83951616.0000000000"
*MEAS_COND_AXIS_NAME_MAGICNO-1 "268632064.0000000000"
*MEAS_COND_AXIS_NAME_MAGICNO-2 "268500992.0000000000"
*MEAS_COND_AXIS_NAME_MAGICNO-3 "285278208.0000000000"
*MEAS_COND_AXIS_NAME_MAGICNO-4 "83951616.0000000000"
*MEAS_COND_AXIS_NAME_MAGICNO-5 "131072.0000000000"
*MEAS_COND_AXIS_NAME_MAGICNO-6 "131072.0000000000"
*MEAS_COND_AXIS_NAME_MAGICNO-7 "318898176.0000000000"
*MEAS_COND_AXIS_NAME_MAGICNO-8 "20971521.0000000000"
*MEAS_COND_AXIS_NAME_MAGICNO-9 "285343744.0000000000"
*MEAS_COND_AXIS_NAME_MAGICNO-10 "20971521.0000000000"
*MEAS_COND_AXIS_NAME_MAGICNO-11 "22020097.0000000000"
*MEAS_COND_AXIS_NAME_MAGICNO-12 "25165824.0000000000"
*MEAS_COND_AXIS_NAME_MAGICNO-13 "318898176.0000000000"
*MEAS_COND_AXIS_NAME_MAGICNO-14 "1.0000000000"
*MEAS_COND_AXIS_NAME_MAGICNO-15 "20971521.0000000000"
*MEAS_COND_AXIS_NAME_MAGICNO-16 "20971521.0000000000"
*MEAS_COND_AXIS_NAME_MAGICNO-17 "20971521.0000000000"
*MEAS_COND_AXIS_NAME_MAGICNO-18 "23068673.0000000000"
*MEAS_COND_AXIS_NAME_MAGICNO-19 "23068673.0000000000"
*MEAS_COND_AXIS_NAME_MAGICNO-20 "20971521.0000000000"
*MEAS_COND_AXIS_NAME_MAGICNO-21 "20971521.0000000000"
*MEAS_COND_AXIS_NAME_MAGICNO-22 "20971521.0000000000"
*MEAS_COND_AXIS_NAME_MAGICNO-23 "25165824.0000000000"
*MEAS_COND_AXIS_NAME_MAGICNO-24 "25165824.0000000000"
*MEAS_COND_AXIS_NAME_MAGICNO-25 "285343744.0000000000"
*MEAS_COND_AXIS_NAME_MAGICNO-26 "17301505.0000000000"
*MEAS_COND_AXIS_NAME_MAGICNO-27 "20971521.0000000000"
*MEAS_COND_AXIS_NAME_MAGICNO-28 "20971521.0000000000"
*MEAS_COND_AXIS_NAME_MAGICNO-29 "20971521.0000000000"
*MEAS_COND_AXIS_NAME_MAGICNO-30 "0.0000000000"
*MEAS_COND_AXIS_OFFSET-0 "-"
*MEAS_COND_AXIS_OFFSET-1 "-0.1081000000"
*MEAS_COND_AXIS_OFFSET-2 "-1.4215000000"
*MEAS_COND_AXIS_OFFSET-3 "-"
*MEAS_COND_AXIS_OFFSET-4 "-"
*MEAS_COND_AXIS_OFFSET-5 "-1.4215000000"
*MEAS_COND_AXIS_OFFSET-6 "1.3134000000"
*MEAS_COND_AXIS_OFFSET-7 "-"
*MEAS_COND_AXIS_OFFSET-8 "-"
*MEAS_COND_AXIS_OFFSET-9 "-"
*MEAS_COND_AXIS_OFFSET-10 "-"
*MEAS_COND_AXIS_OFFSET-11 "-"
*MEAS_COND_AXIS_OFFSET-12 "-"
*MEAS_COND_AXIS_OFFSET-13 "-"
*MEAS_COND_AXIS_OFFSET-14 "-"
*MEAS_COND_AXIS_OFFSET-15 "-"
*MEAS_COND_AXIS_OFFSET-16 "-"
*MEAS_COND_AXIS_OFFSET-17 "-"
*MEAS_COND_AXIS_OFFSET-18 "-"
*MEAS_COND_AXIS_OFFSET-19 "-"
*MEAS_COND_AXIS_OFFSET-20 "-"
*MEAS_COND_AXIS_OFFSET-21 "-"
*MEAS_COND_AXIS_OFFSET-22 "-"
*MEAS_COND_AXIS_OFFSET-23 "-"
*MEAS_COND_AXIS_OFFSET-24 "-"
*MEAS_COND_AXIS_OFFSET-25 "-"
*MEAS_COND_AXIS_OFFSET-26 "-"
*MEAS_COND_AXIS_OFFSET-27 "-"
*MEAS_COND_AXIS_OFFSET-28 "-"
*MEAS_COND_AXIS_OFFSET-29 "-"
*MEAS_COND_AXIS_OFFSET-30 "-"
*MEAS_COND_AXIS_POSITION-0 "0.0000000000"
*MEAS_COND_AXIS_POSITION-1 "0.0000000000"
*MEAS_COND_AXIS_POSITION-2 "0.0000000000"
*MEAS_COND_AXIS_POSITION-3 "-2.3638400000"
*MEAS_COND_AXIS_POSITION-4 "0.0000000000"
*MEAS_COND_AXIS_POSITION-5 "0.0000000000"
*MEAS_COND_AXIS_POSITION-6 "0.0000000000"
*MEAS_COND_AXIS_POSITION-7 "-0.4278800000"
*MEAS_COND_AXIS_POSITION-8 "BB"
*MEAS_COND_AXIS_POSITION-9 "0.0000000000"
*MEAS_COND_AXIS_POSITION-10 "Soller_slit_5.0deg"
*MEAS_COND_AXIS_POSITION-11 "2/3deg"
*MEAS_COND_AXIS_POSITION-12 "2.2088000000"
*MEAS_COND_AXIS_POSITION-13 "-0.4140600000"
*MEAS_COND_AXIS_POSITION-14 "0.0000000000"
*MEAS_COND_AXIS_POSITION-15 "10.0mm"
*MEAS_COND_AXIS_POSITION-16 "None"
*MEAS_COND_AXIS_POSITION-17 "Cu_K-beta"
*MEAS_COND_AXIS_POSITION-18 "13.000mm"
*MEAS_COND_AXIS_POSITION-19 "13.000mm"
*MEAS_COND_AXIS_POSITION-20 "No_unit"
*MEAS_COND_AXIS_POSITION-21 "Soller_slit_5.0deg"
*MEAS_COND_AXIS_POSITION-22 "None"
*MEAS_COND_AXIS_POSITION-23 "13.0000000000"
*MEAS_COND_AXIS_POSITION-24 "13.0000000000"
*MEAS_COND_AXIS_POSITION-25 "0.0109400000"
*MEAS_COND_AXIS_POSITION-26 "Open"
*MEAS_COND_AXIS_POSITION-27 "None"
*MEAS_COND_AXIS_POSITION-28 "None"
*MEAS_COND_AXIS_POSITION-29 "None"
*MEAS_COND_AXIS_POSITION-30 "38.0000000000"
*MEAS_COND_AXIS_UNIT-0 "deg"
*MEAS_COND_AXIS_UNIT-1 "deg"
*MEAS_COND_AXIS_UNIT-2 "deg"
*MEAS_COND_AXIS_UNIT-3 "mm"
*MEAS_COND_AXIS_UNIT-4 "deg"
*MEAS_COND_AXIS_UNIT-5 "deg"
*MEAS_COND_AXIS_UNIT-6 "deg"
*MEAS_COND_AXIS_UNIT-7 "mm"
*MEAS_COND_AXIS_UNIT-8 ""
*MEAS_COND_AXIS_UNIT-9 "pulse"
*MEAS_COND_AXIS_UNIT-10 ""
*MEAS_COND_AXIS_UNIT-11 ""
*MEAS_COND_AXIS_UNIT-12 "mm"
*MEAS_COND_AXIS_UNIT-13 "mm"
*MEAS_COND_AXIS_UNIT-14 ""
*MEAS_COND_AXIS_UNIT-15 ""
*MEAS_COND_AXIS_UNIT-16 ""
*MEAS_COND_AXIS_UNIT-17 ""
*MEAS_COND_AXIS_UNIT-18 ""
*MEAS_COND_AXIS_UNIT-19 ""
*MEAS_COND_AXIS_UNIT-20 ""
*MEAS_COND_AXIS_UNIT-21 ""
*MEAS_COND_AXIS_UNIT-22 ""
*MEAS_COND_AXIS_UNIT-23 "mm"
*MEAS_COND_AXIS_UNIT-24 "mm"
*MEAS_COND_AXIS_UNIT-25 "mm"
*MEAS_COND_AXIS_UNIT-26 ""
*MEAS_COND_AXIS_UNIT-27 ""
*MEAS_COND_AXIS_UNIT-28 ""
*MEAS_COND_AXIS_UNIT-29 ""
*MEAS_COND_AXIS_UNIT-30 "div"
*MEAS_COND_COUNTER_CNTLOSS_CORR "0.0000000000"
*MEAS_COND_COUNTER_PHABASE "38.0000000000"
*MEAS_COND_COUNTER_PHAWINDOW "16.0000000000"
*MEAS_COND_COUNTER_PHA_UNIT "div"
*MEAS_COND_COUNTER_TAUDIFF "30.0000000000"
*MEAS_COND_COUNTER_TAUINT "0.0000000000"
*MEAS_COND_IRRADIATION_MODE "OFF"
*MEAS_COND_IRRADIATION_WIDTH ""
*MEAS_COND_OPT_ATTR "集中法"
*MEAS_COND_OPT_NAME "@集中法"
*MEAS_COND_UNSYMMETRIC_MODE "OFF"
*MEAS_COND_XG_CURRENT "30.0000000000"
*MEAS_COND_XG_VOLTAGE "40.0000000000"
*MEAS_COND_XG_WAVE_TYPE "Ka"
*MEAS_DATA_COUNT "5001.0000000000"
*MEAS_SCAN_AXIS_X "2θ/θ"
*MEAS_SCAN_AXIS_X_INTERNAL "TwoThetaTheta"
*MEAS_SCAN_END_TIME "06/03/22 13:45:02"
*MEAS_SCAN_MODE "CONTINUOUS"
*MEAS_SCAN_MONITOR "0"
*MEAS_SCAN_RESOLUTION_X "0.0002"
*MEAS_SCAN_SPEED "2.5"
*MEAS_SCAN_SPEED_UNIT "deg/min"
*MEAS_SCAN_START "20.0000000000"
*MEAS_SCAN_START_TIME "06/03/22 13:23:38"
*MEAS_SCAN_STEP "0.0100000000"
*MEAS_SCAN_STOP "70.0000000000"
*MEAS_SCAN_UNIT_X "deg"
*MEAS_SCAN_UNIT_Y "counts"
*RAS_HEADER_END
*RAS_INT_START
20.0000 841.0000 1.0000
20.0100 756.0000 1.0000
20.0200 821.0000 1.0000
20.0300 810.0000 1.0000
20.0400 764.0000 1.0000
20.0500 762.0000 1.0000
20.0600 767.0000 1.0000
20.0700 777.0000 1.0000
20.0800 781.0000 1.0000
20.0900 821.0000 1.0000
20.1000 756.0000 1.0000
20.1100 769.0000 1.0000
20.1200 756.0000 1.0000
20.1300 764.0000 1.0000
20.1400 772.0000 1.0000
20.1500 786.0000 1.0000
20.1600 837.0000 1.0000
20.1700 832.0000 1.0000
20.1800 821.0000 1.0000
20.1900 813.0000 1.0000
20.2000 789.0000 1.0000
20.2100 791.0000 1.0000
20.2200 825.0000 1.0000
20.2300 827.0000 1.0000
20.2400 818.0000 1.0000
20.2500 791.0000 1.0000
20.2600 792.0000 1.0000
20.2700 733.0000 1.0000
20.2800 815.0000 1.0000
20.2900 799.0000 1.0000
20.3000 792.0000 1.0000
20.3100 773.0000 1.0000
20.3200 790.0000 1.0000
20.3300 756.0000 1.0000
20.3400 770.0000 1.0000
20.3500 806.0000 1.0000
20.3600 776.0000 1.0000
20.3700 790.0000 1.0000
20.3800 770.0000 1.0000
20.3900 791.0000 1.0000
20.4000 784.0000 1.0000
20.4100 766.0000 1.0000
20.4200 780.0000 1.0000
20.4300 771.0000 1.0000
20.4400 829.0000 1.0000
20.4500 815.0000 1.0000
20.4600 826.0000 1.0000
20.4700 793.0000 1.0000
20.4800 762.0000 1.0000
20.4900 760.0000 1.0000
20.5000 776.0000 1.0000
20.5100 796.0000 1.0000
20.5200 849.0000 1.0000
20.5300 777.0000 1.0000
20.5400 749.0000 1.0000
20.5500 758.0000 1.0000
20.5600 757.0000 1.0000
20.5700 753.0000 1.0000
20.5800 778.0000 1.0000
20.5900 767.0000 1.0000
20.6000 809.0000 1.0000
20.6100 808.0000 1.0000
20.6200 802.0000 1.0000
20.6300 778.0000 1.0000
20.6400 802.0000 1.0000
20.6500 784.0000 1.0000
20.6600 769.0000 1.0000
20.6700 774.0000 1.0000
20.6800 840.0000 1.0000
20.6900 808.0000 1.0000
20.7000 791.0000 1.0000
20.7100 779.0000 1.0000
20.7200 785.0000 1.0000
20.7300 781.0000 1.0000
20.7400 760.0000 1.0000
20.7500 797.0000 1.0000
20.7600 829.0000 1.0000
20.7700 756.0000 1.0000
20.7800 776.0000 1.0000
20.7900 770.0000 1.0000
20.8000 784.0000 1.0000
20.8100 784.0000 1.0000
20.8200 768.0000 1.0000
20.8300 793.0000 1.0000
20.8400 803.0000 1.0000
20.8500 818.0000 1.0000
20.8600 761.0000 1.0000
20.8700 783.0000 1.0000
20.8800 780.0000 1.0000
20.8900 732.0000 1.0000
20.9000 758.0000 1.0000
20.9100 798.0000 1.0000
20.9200 771.0000 1.0000
20.9300 832.0000 1.0000
20.9400 756.0000 1.0000
20.9500 788.0000 1.0000
20.9600 805.0000 1.0000
20.9700 706.0000 1.0000
20.9800 811.0000 1.0000
20.9900 789.0000 1.0000
21.0000 760.0000 1.0000
21.0100 784.0000 1.0000
21.0200 772.0000 1.0000
21.0300 783.0000 1.0000
21.0400 763.0000 1.0000
21.0500 772.0000 1.0000
21.0600 825.0000 1.0000
21.0700 820.0000 1.0000
21.0800 756.0000 1.0000
21.0900 763.0000 1.0000
21.1000 803.0000 1.0000
21.1100 808.0000 1.0000
21.1200 790.0000 1.0000
21.1300 800.0000 1.0000
21.1400 765.0000 1.0000
21.1500 767.0000 1.0000
21.1600 765.0000 1.0000
21.1700 824.0000 1.0000
21.1800 817.0000 1.0000
21.1900 796.0000 1.0000
21.2000 769.0000 1.0000
21.2100 776.0000 1.0000
21.2200 799.0000 1.0000
21.2300 764.0000 1.0000
21.2400 801.0000 1.0000
21.2500 815.0000 1.0000
21.2600 754.0000 1.0000
21.2700 799.0000 1.0000
21.2800 782.0000 1.0000
21.2900 828.0000 1.0000
21.3000 779.0000 1.0000
21.3100 760.0000 1.0000
21.3200 758.0000 1.0000
21.3300 815.0000 1.0000
21.3400 817.0000 1.0000
21.3500 781.0000 1.0000
21.3600 797.0000 1.0000
21.3700 795.0000 1.0000
21.3800 813.0000 1.0000
21.3900 774.0000 1.0000
21.4000 774.0000 1.0000
21.4100 767.0000 1.0000
21.4200 773.0000 1.0000
21.4300 767.0000 1.0000
21.4400 771.0000 1.0000
21.4500 801.0000 1.0000
21.4600 824.0000 1.0000
21.4700 778.0000 1.0000
21.4800 762.0000 1.0000
21.4900 802.0000 1.0000
21.5000 750.0000 1.0000
21.5100 774.0000 1.0000
21.5200 790.0000 1.0000
21.5300 812.0000 1.0000
21.5400 794.0000 1.0000
21.5500 763.0000 1.0000
21.5600 807.0000 1.0000
21.5700 790.0000 1.0000
21.5800 762.0000 1.0000
21.5900 765.0000 1.0000
21.6000 789.0000 1.0000
21.6100 766.0000 1.0000
21.6200 786.0000 1.0000
21.6300 781.0000 1.0000
21.6400 765.0000 1.0000
21.6500 819.0000 1.0000
21.6600 773.0000 1.0000
21.6700 759.0000 1.0000
21.6800 783.0000 1.0000
21.6900 775.0000 1.0000
21.7000 761.0000 1.0000
21.7100 779.0000 1.0000
21.7200 801.0000 1.0000
21.7300 806.0000 1.0000
21.7400 756.0000 1.0000
21.7500 756.0000 1.0000
21.7600 780.0000 1.0000
21.7700 780.0000 1.0000
21.7800 794.0000 1.0000
21.7900 776.0000 1.0000
21.8000 797.0000 1.0000
21.8100 762.0000 1.0000
21.8200 817.0000 1.0000
21.8300 783.0000 1.0000
21.8400 784.0000 1.0000
21.8500 791.0000 1.0000
21.8600 802.0000 1.0000
21.8700 745.0000 1.0000
21.8800 819.0000 1.0000
21.8900 750.0000 1.0000
21.9000 741.0000 1.0000
21.9100 787.0000 1.0000
21.9200 810.0000 1.0000
21.9300 796.0000 1.0000
21.9400 789.0000 1.0000
21.9500 796.0000 1.0000
21.9600 735.0000 1.0000
21.9700 787.0000 1.0000
21.9800 792.0000 1.0000
21.9900 755.0000 1.0000
22.0000 759.0000 1.0000
22.0100 757.0000 1.0000
22.0200 765.0000 1.0000
22.0300 796.0000 1.0000
22.0400 794.0000 1.0000
22.0500 802.0000 1.0000
22.0600 767.0000 1.0000
22.0700 773.0000 1.0000
22.0800 780.0000 1.0000
22.0900 771.0000 1.0000
22.1000 777.0000 1.0000
22.1100 750.0000 1.0000
22.1200 780.0000 1.0000
22.1300 769.0000 1.0000
22.1400 807.0000 1.0000
22.1500 794.0000 1.0000
22.1600 776.0000 1.0000
22.1700 788.0000 1.0000
22.1800 795.0000 1.0000
22.1900 829.0000 1.0000
22.2000 803.0000 1.0000
22.2100 784.0000 1.0000
22.2200 786.0000 1.0000
22.2300 747.0000 1.0000
22.2400 782.0000 1.0000
22.2500 771.0000 1.0000
22.2600 763.0000 1.0000
22.2700 765.0000 1.0000
22.2800 790.0000 1.0000
22.2900 787.0000 1.0000
22.3000 805.0000 1.0000
22.3100 788.0000 1.0000
22.3200 756.0000 1.0000
22.3300 740.0000 1.0000
22.3400 760.0000 1.0000
22.3500 744.0000 1.0000
22.3600 770.0000 1.0000
22.3700 754.0000 1.0000
22.3800 776.0000 1.0000
22.3900 839.0000 1.0000
22.4000 759.0000 1.0000
22.4100 759.0000 1.0000
22.4200 728.0000 1.0000
22.4300 770.0000 1.0000
22.4400 776.0000 1.0000
22.4500 796.0000 1.0000
22.4600 821.0000 1.0000
22.4700 799.0000 1.0000
22.4800 771.0000 1.0000
22.4900 762.0000 1.0000
22.5000 801.0000 1.0000
22.5100 805.0000 1.0000
22.5200 790.0000 1.0000
22.5300 788.0000 1.0000
22.5400 763.0000 1.0000
22.5500 763.0000 1.0000
22.5600 733.0000 1.0000
22.5700 794.0000 1.0000
22.5800 720.0000 1.0000
22.5900 781.0000 1.0000
22.6000 786.0000 1.0000
22.6100 757.0000 1.0000
22.6200 752.0000 1.0000
22.6300 797.0000 1.0000
22.6400 769.0000 1.0000
22.6500 780.0000 1.0000
22.6600 751.0000 1.0000
22.6700 722.0000 1.0000
22.6800 744.0000 1.0000
22.6900 771.0000 1.0000
22.7000 785.0000 1.0000
22.7100 778.0000 1.0000
22.7200 760.0000 1.0000
22.7300 779.0000 1.0000
22.7400 756.0000 1.0000
22.7500 782.0000 1.0000
22.7600 748.0000 1.0000
22.7700 791.0000 1.0000
22.7800 814.0000 1.0000
22.7900 804.0000 1.0000
22.8000 772.0000 1.0000
22.8100 800.0000 1.0000
22.8200 820.0000 1.0000
22.8300 801.0000 1.0000
22.8400 753.0000 1.0000
22.8500 783.0000 1.0000
22.8600 729.0000 1.0000
22.8700 745.0000 1.0000
22.8800 751.0000 1.0000
22.8900 787.0000 1.0000
22.9000 764.0000 1.0000
22.9100 800.0000 1.0000
22.9200 768.0000 1.0000
22.9300 734.0000 1.0000
22.9400 744.0000 1.0000
22.9500 801.0000 1.0000
22.9600 783.0000 1.0000
22.9700 721.0000 1.0000
22.9800 764.0000 1.0000
22.9900 765.0000 1.0000
23.0000 757.0000 1.0000
23.0100 759.0000 1.0000
23.0200 768.0000 1.0000
23.0300 758.0000 1.0000
23.0400 765.0000 1.0000
23.0500 767.0000 1.0000
23.0600 716.0000 1.0000
23.0700 746.0000 1.0000
23.0800 766.0000 1.0000
23.0900 790.0000 1.0000
23.1000 792.0000 1.0000
23.1100 759.0000 1.0000
23.1200 748.0000 1.0000
23.1300 780.0000 1.0000
23.1400 760.0000 1.0000
23.1500 753.0000 1.0000
23.1600 742.0000 1.0000
23.1700 790.0000 1.0000
23.1800 748.0000 1.0000
23.1900 794.0000 1.0000
23.2000 793.0000 1.0000
23.2100 759.0000 1.0000
23.2200 835.0000 1.0000
23.2300 778.0000 1.0000
23.2400 780.0000 1.0000
23.2500 765.0000 1.0000
23.2600 796.0000 1.0000
23.2700 775.0000 1.0000
23.2800 721.0000 1.0000
23.2900 750.0000 1.0000
23.3000 738.0000 1.0000
23.3100 788.0000 1.0000
23.3200 782.0000 1.0000
23.3300 812.0000 1.0000
23.3400 776.0000 1.0000
23.3500 800.0000 1.0000
23.3600 774.0000 1.0000
23.3700 742.0000 1.0000
23.3800 792.0000 1.0000
23.3900 758.0000 1.0000
23.4000 805.0000 1.0000
23.4100 759.0000 1.0000
23.4200 760.0000 1.0000
23.4300 782.0000 1.0000
23.4400 744.0000 1.0000
23.4500 758.0000 1.0000
23.4600 777.0000 1.0000
23.4700 764.0000 1.0000
23.4800 742.0000 1.0000
23.4900 793.0000 1.0000
23.5000 741.0000 1.0000
23.5100 738.0000 1.0000
23.5200 765.0000 1.0000
23.5300 780.0000 1.0000
23.5400 721.0000 1.0000
23.5500 718.0000 1.0000
23.5600 755.0000 1.0000
23.5700 791.0000 1.0000
23.5800 748.0000 1.0000
23.5900 731.0000 1.0000
23.6000 776.0000 1.0000
23.6100 761.0000 1.0000
23.6200 762.0000 1.0000
23.6300 736.0000 1.0000
23.6400 762.0000 1.0000
23.6500 773.0000 1.0000
23.6600 750.0000 1.0000
23.6700 753.0000 1.0000
23.6800 766.0000 1.0000
23.6900 771.0000 1.0000
23.7000 755.0000 1.0000
23.7100 760.0000 1.0000
23.7200 766.0000 1.0000
23.7300 747.0000 1.0000
23.7400 747.0000 1.0000
23.7500 787.0000 1.0000
23.7600 762.0000 1.0000
23.7700 732.0000 1.0000
23.7800 816.0000 1.0000
23.7900 748.0000 1.0000
23.8000 748.0000 1.0000
23.8100 760.0000 1.0000
23.8200 732.0000 1.0000
23.8300 785.0000 1.0000
23.8400 753.0000 1.0000
23.8500 786.0000 1.0000
23.8600 765.0000 1.0000
23.8700 821.0000 1.0000
23.8800 768.0000 1.0000
23.8900 771.0000 1.0000
23.9000 765.0000 1.0000
23.9100 774.0000 1.0000
23.9200 782.0000 1.0000
23.9300 741.0000 1.0000
23.9400 750.0000 1.0000
23.9500 724.0000 1.0000
23.9600 747.0000 1.0000
23.9700 764.0000 1.0000
23.9800 783.0000 1.0000
23.9900 754.0000 1.0000
24.0000 790.0000 1.0000
24.0100 799.0000 1.0000
24.0200 778.0000 1.0000
24.0300 784.0000 1.0000
24.0400 859.0000 1.0000
24.0500 754.0000 1.0000
24.0600 792.0000 1.0000
24.0700 764.0000 1.0000
24.0800 770.0000 1.0000
24.0900 802.0000 1.0000
24.1000 780.0000 1.0000
24.1100 780.0000 1.0000
24.1200 770.0000 1.0000
24.1300 769.0000 1.0000
24.1400 816.0000 1.0000
24.1500 808.0000 1.0000
24.1600 778.0000 1.0000
24.1700 764.0000 1.0000
24.1800 793.0000 1.0000
24.1900 784.0000 1.0000
24.2000 796.0000 1.0000
24.2100 816.0000 1.0000
24.2200 775.0000 1.0000
24.2300 807.0000 1.0000
24.2400 836.0000 1.0000
24.2500 855.0000 1.0000
24.2600 760.0000 1.0000
24.2700 767.0000 1.0000
24.2800 808.0000 1.0000
24.2900 810.0000 1.0000
24.3000 816.0000 1.0000
24.3100 852.0000 1.0000
24.3200 804.0000 1.0000
24.3300 773.0000 1.0000
24.3400 861.0000 1.0000
24.3500 805.0000 1.0000
24.3600 774.0000 1.0000
24.3700 839.0000 1.0000
24.3800 851.0000 1.0000
24.3900 815.0000 1.0000
24.4000 789.0000 1.0000
24.4100 760.0000 1.0000
24.4200 761.0000 1.0000
24.4300 787.0000 1.0000
24.4400 805.0000 1.0000
24.4500 814.0000 1.0000
24.4600 800.0000 1.0000
24.4700 775.0000 1.0000
24.4800 799.0000 1.0000
24.4900 775.0000 1.0000
24.5000 776.0000 1.0000
24.5100 854.0000 1.0000
24.5200 813.0000 1.0000
24.5300 774.0000 1.0000
24.5400 727.0000 1.0000
24.5500 722.0000 1.0000
24.5600 741.0000 1.0000
24.5700 769.0000 1.0000
24.5800 773.0000 1.0000
24.5900 743.0000 1.0000
24.6000 775.0000 1.0000
24.6100 794.0000 1.0000
24.6200 774.0000 1.0000
24.6300 767.0000 1.0000
24.6400 749.0000 1.0000
24.6500 736.0000 1.0000
24.6600 763.0000 1.0000
24.6700 769.0000 1.0000
24.6800 775.0000 1.0000
24.6900 747.0000 1.0000
24.7000 758.0000 1.0000
24.7100 744.0000 1.0000
24.7200 799.0000 1.0000
24.7300 721.0000 1.0000
24.7400 744.0000 1.0000
24.7500 714.0000 1.0000
24.7600 738.0000 1.0000
24.7700 766.0000 1.0000
24.7800 761.0000 1.0000
24.7900 738.0000 1.0000
24.8000 752.0000 1.0000
24.8100 765.0000 1.0000
24.8200 792.0000 1.0000
24.8300 718.0000 1.0000
24.8400 728.0000 1.0000
24.8500 766.0000 1.0000
24.8600 723.0000 1.0000
24.8700 723.0000 1.0000
24.8800 743.0000 1.0000
24.8900 769.0000 1.0000
24.9000 755.0000 1.0000
24.9100 747.0000 1.0000
24.9200 733.0000 1.0000
24.9300 738.0000 1.0000
24.9400 723.0000 1.0000
24.9500 728.0000 1.0000
24.9600 757.0000 1.0000
24.9700 716.0000 1.0000
24.9800 744.0000 1.0000
24.9900 756.0000 1.0000
25.0000 755.0000 1.0000
25.0100 784.0000 1.0000
25.0200 734.0000 1.0000
25.0300 714.0000 1.0000
25.0400 708.0000 1.0000
25.0500 711.0000 1.0000
25.0600 736.0000 1.0000
25.0700 677.0000 1.0000
25.0800 725.0000 1.0000
25.0900 736.0000 1.0000
25.1000 745.0000 1.0000
25.1100 757.0000 1.0000
25.1200 742.0000 1.0000
25.1300 692.0000 1.0000
25.1400 712.0000 1.0000
25.1500 757.0000 1.0000
25.1600 762.0000 1.0000
25.1700 751.0000 1.0000
25.1800 751.0000 1.0000
25.1900 785.0000 1.0000
25.2000 746.0000 1.0000
25.2100 762.0000 1.0000
25.2200 756.0000 1.0000
25.2300 758.0000 1.0000
25.2400 713.0000 1.0000
25.2500 714.0000 1.0000
25.2600 698.0000 1.0000
25.2700 736.0000 1.0000
25.2800 738.0000 1.0000
25.2900 726.0000 1.0000
25.3000 732.0000 1.0000
25.3100 709.0000 1.0000
25.3200 726.0000 1.0000
25.3300 745.0000 1.0000
25.3400 714.0000 1.0000
25.3500 727.0000 1.0000
25.3600 757.0000 1.0000
25.3700 771.0000 1.0000
25.3800 736.0000 1.0000
25.3900 698.0000 1.0000
25.4000 736.0000 1.0000
25.4100 755.0000 1.0000
25.4200 774.0000 1.0000
25.4300 756.0000 1.0000
25.4400 699.0000 1.0000
25.4500 718.0000 1.0000
25.4600 744.0000 1.0000
25.4700 741.0000 1.0000
25.4800 753.0000 1.0000
25.4900 757.0000 1.0000
25.5000 730.0000 1.0000
25.5100 743.0000 1.0000
25.5200 761.0000 1.0000
25.5300 687.0000 1.0000
25.5400 698.0000 1.0000
25.5500 754.0000 1.0000
25.5600 739.0000 1.0000
25.5700 748.0000 1.0000
25.5800 724.0000 1.0000
25.5900 746.0000 1.0000
25.6000 739.0000 1.0000
25.6100 783.0000 1.0000
25.6200 777.0000 1.0000
25.6300 753.0000 1.0000
25.6400 724.0000 1.0000
25.6500 733.0000 1.0000
25.6600 728.0000 1.0000
25.6700 765.0000 1.0000
25.6800 713.0000 1.0000
25.6900 741.0000 1.0000
25.7000 701.0000 1.0000
25.7100 751.0000 1.0000
25.7200 752.0000 1.0000
25.7300 740.0000 1.0000
25.7400 744.0000 1.0000
25.7500 722.0000 1.0000
25.7600 741.0000 1.0000
25.7700 777.0000 1.0000
25.7800 744.0000 1.0000
25.7900 726.0000 1.0000
25.8000 757.0000 1.0000
25.8100 751.0000 1.0000
25.8200 782.0000 1.0000
25.8300 814.0000 1.0000
25.8400 735.0000 1.0000
25.8500 764.0000 1.0000
25.8600 770.0000 1.0000
25.8700 706.0000 1.0000
25.8800 715.0000 1.0000
25.8900 808.0000 1.0000
25.9000 798.0000 1.0000
25.9100 740.0000 1.0000
25.9200 794.0000 1.0000
25.9300 782.0000 1.0000
25.9400 755.0000 1.0000
25.9500 761.0000 1.0000
25.9600 818.0000 1.0000
25.9700 807.0000 1.0000
25.9800 732.0000 1.0000
25.9900 760.0000 1.0000
26.0000 750.0000 1.0000
26.0100 747.0000 1.0000
26.0200 748.0000 1.0000
26.0300 799.0000 1.0000
26.0400 778.0000 1.0000
26.0500 803.0000 1.0000
26.0600 734.0000 1.0000
26.0700 765.0000 1.0000
26.0800 769.0000 1.0000
26.0900 820.0000 1.0000
26.1000 807.0000 1.0000
26.1100 798.0000 1.0000
26.1200 799.0000 1.0000
26.1300 792.0000 1.0000
26.1400 786.0000 1.0000
26.1500 813.0000 1.0000
26.1600 795.0000 1.0000
26.1700 829.0000 1.0000
26.1800 805.0000 1.0000
26.1900 818.0000 1.0000
26.2000 837.0000 1.0000
26.2100 779.0000 1.0000
26.2200 771.0000 1.0000
26.2300 871.0000 1.0000
26.2400 825.0000 1.0000
26.2500 827.0000 1.0000
26.2600 813.0000 1.0000
26.2700 811.0000 1.0000
26.2800 873.0000 1.0000
26.2900 859.0000 1.0000
26.3000 812.0000 1.0000
26.3100 873.0000 1.0000
26.3200 901.0000 1.0000
26.3300 875.0000 1.0000
26.3400 869.0000 1.0000
26.3500 891.0000 1.0000
26.3600 937.0000 1.0000
26.3700 936.0000 1.0000
26.3800 989.0000 1.0000
26.3900 1004.0000 1.0000
26.4000 971.0000 1.0000
26.4100 994.0000 1.0000
26.4200 1042.0000 1.0000
26.4300 1060.0000 1.0000
26.4400 1127.0000 1.0000
26.4500 1214.0000 1.0000
26.4600 1204.0000 1.0000
26.4700 1212.0000 1.0000
26.4800 1276.0000 1.0000
26.4900 1307.0000 1.0000
26.5000 1424.0000 1.0000
26.5100 1494.0000 1.0000
26.5200 1533.0000 1.0000
26.5300 1628.0000 1.0000
26.5400 1685.0000 1.0000
26.5500 1821.0000 1.0000
26.5600 1904.0000 1.0000
26.5700 1994.0000 1.0000
26.5800 2108.0000 1.0000
26.5900 2249.0000 1.0000
26.6000 2274.0000 1.0000
26.6100 2483.0000 1.0000
26.6200 2475.0000 1.0000
26.6300 2636.0000 1.0000
26.6400 2689.0000 1.0000
26.6500 2791.0000 1.0000
26.6600 2797.0000 1.0000
26.6700 2713.0000 1.0000
26.6800 2850.0000 1.0000
26.6900 2777.0000 1.0000
26.7000 2751.0000 1.0000
26.7100 2596.0000 1.0000
26.7200 2554.0000 1.0000
26.7300 2421.0000 1.0000
26.7400 2343.0000 1.0000
26.7500 2340.0000 1.0000
26.7600 2154.0000 1.0000
26.7700 2073.0000 1.0000
26.7800 1952.0000 1.0000
26.7900 1875.0000 1.0000
26.8000 1768.0000 1.0000
26.8100 1613.0000 1.0000
26.8200 1541.0000 1.0000
26.8300 1454.0000 1.0000
26.8400 1394.0000 1.0000
26.8500 1314.0000 1.0000
26.8600 1249.0000 1.0000
26.8700 1184.0000 1.0000
26.8800 1134.0000 1.0000
26.8900 1182.0000 1.0000
26.9000 1116.0000 1.0000
26.9100 1120.0000 1.0000
26.9200 1072.0000 1.0000
26.9300 1004.0000 1.0000
26.9400 987.0000 1.0000
26.9500 1012.0000 1.0000
26.9600 940.0000 1.0000
26.9700 982.0000 1.0000
26.9800 895.0000 1.0000
26.9900 927.0000 1.0000
27.0000 896.0000 1.0000
27.0100 881.0000 1.0000
27.0200 869.0000 1.0000
27.0300 823.0000 1.0000
27.0400 870.0000 1.0000
27.0500 841.0000 1.0000
27.0600 860.0000 1.0000
27.0700 832.0000 1.0000
27.0800 813.0000 1.0000
27.0900 821.0000 1.0000
27.1000 797.0000 1.0000
27.1100 866.0000 1.0000
27.1200 814.0000 1.0000
27.1300 829.0000 1.0000
27.1400 780.0000 1.0000
27.1500 804.0000 1.0000
27.1600 776.0000 1.0000
27.1700 817.0000 1.0000
27.1800 807.0000 1.0000
27.1900 768.0000 1.0000
27.2000 765.0000 1.0000
27.2100 748.0000 1.0000
27.2200 744.0000 1.0000
27.2300 760.0000 1.0000
27.2400 761.0000 1.0000
27.2500 718.0000 1.0000
27.2600 723.0000 1.0000
27.2700 776.0000 1.0000
27.2800 739.0000 1.0000
27.2900 704.0000 1.0000
27.3000 723.0000 1.0000
27.3100 696.0000 1.0000
27.3200 708.0000 1.0000
27.3300 735.0000 1.0000
27.3400 740.0000 1.0000
27.3500 727.0000 1.0000
27.3600 723.0000 1.0000
27.3700 694.0000 1.0000
27.3800 716.0000 1.0000
27.3900 757.0000 1.0000
27.4000 713.0000 1.0000
27.4100 739.0000 1.0000
27.4200 711.0000 1.0000
27.4300 699.0000 1.0000
27.4400 715.0000 1.0000
27.4500 673.0000 1.0000
27.4600 649.0000 1.0000
27.4700 667.0000 1.0000
27.4800 716.0000 1.0000
27.4900 704.0000 1.0000
27.5000 726.0000 1.0000
27.5100 694.0000 1.0000
27.5200 674.0000 1.0000
27.5300 674.0000 1.0000
27.5400 711.0000 1.0000
27.5500 705.0000 1.0000
27.5600 692.0000 1.0000
27.5700 689.0000 1.0000
27.5800 647.0000 1.0000
27.5900 713.0000 1.0000
27.6000 658.0000 1.0000
27.6100 703.0000 1.0000
27.6200 737.0000 1.0000
27.6300 690.0000 1.0000
27.6400 683.0000 1.0000
27.6500 713.0000 1.0000
27.6600 727.0000 1.0000
27.6700 716.0000 1.0000
27.6800 710.0000 1.0000
27.6900 667.0000 1.0000
27.7000 663.0000 1.0000
27.7100 745.0000 1.0000
27.7200 654.0000 1.0000
27.7300 654.0000 1.0000
27.7400 668.0000 1.0000
27.7500 713.0000 1.0000
27.7600 701.0000 1.0000
27.7700 670.0000 1.0000
27.7800 662.0000 1.0000
27.7900 648.0000 1.0000
27.8000 683.0000 1.0000
27.8100 656.0000 1.0000
27.8200 642.0000 1.0000
27.8300 679.0000 1.0000
27.8400 659.0000 1.0000
27.8500 684.0000 1.0000
27.8600 688.0000 1.0000
27.8700 667.0000 1.0000
27.8800 703.0000 1.0000
27.8900 684.0000 1.0000
27.9000 727.0000 1.0000
27.9100 706.0000 1.0000
27.9200 714.0000 1.0000
27.9300 698.0000 1.0000
27.9400 671.0000 1.0000
27.9500 687.0000 1.0000
27.9600 695.0000 1.0000
27.9700 711.0000 1.0000
27.9800 676.0000 1.0000
27.9900 685.0000 1.0000
28.0000 617.0000 1.0000
28.0100 617.0000 1.0000
28.0200 650.0000 1.0000
28.0300 708.0000 1.0000
28.0400 690.0000 1.0000
28.0500 675.0000 1.0000
28.0600 648.0000 1.0000
28.0700 650.0000 1.0000
28.0800 684.0000 1.0000
28.0900 665.0000 1.0000
28.1000 638.0000 1.0000
28.1100 667.0000 1.0000
28.1200 624.0000 1.0000
28.1300 619.0000 1.0000
28.1400 650.0000 1.0000
28.1500 649.0000 1.0000
28.1600 663.0000 1.0000
28.1700 666.0000 1.0000
28.1800 654.0000 1.0000
28.1900 696.0000 1.0000
28.2000 667.0000 1.0000
28.2100 639.0000 1.0000
28.2200 620.0000 1.0000
28.2300 664.0000 1.0000
28.2400 651.0000 1.0000
28.2500 657.0000 1.0000
28.2600 651.0000 1.0000
28.2700 644.0000 1.0000
28.2800 625.0000 1.0000
28.2900 629.0000 1.0000
28.3000 644.0000 1.0000
28.3100 664.0000 1.0000
28.3200 650.0000 1.0000
28.3300 692.0000 1.0000
28.3400 672.0000 1.0000
28.3500 604.0000 1.0000
28.3600 678.0000 1.0000
28.3700 685.0000 1.0000
28.3800 693.0000 1.0000
28.3900 639.0000 1.0000
28.4000 661.0000 1.0000
28.4100 649.0000 1.0000
28.4200 665.0000 1.0000
28.4300 685.0000 1.0000
28.4400 651.0000 1.0000
28.4500 594.0000 1.0000
28.4600 629.0000 1.0000
28.4700 674.0000 1.0000
28.4800 640.0000 1.0000
28.4900 623.0000 1.0000
28.5000 615.0000 1.0000
28.5100 663.0000 1.0000
28.5200 675.0000 1.0000
28.5300 647.0000 1.0000
28.5400 644.0000 1.0000
28.5500 614.0000 1.0000
28.5600 674.0000 1.0000
28.5700 586.0000 1.0000
28.5800 597.0000 1.0000
28.5900 634.0000 1.0000
28.6000 658.0000 1.0000
28.6100 644.0000 1.0000
28.6200 652.0000 1.0000
28.6300 656.0000 1.0000
28.6400 651.0000 1.0000
28.6500 626.0000 1.0000
28.6600 622.0000 1.0000
28.6700 610.0000 1.0000
28.6800 644.0000 1.0000
28.6900 632.0000 1.0000
28.7000 656.0000 1.0000
28.7100 670.0000 1.0000
28.7200 655.0000 1.0000
28.7300 614.0000 1.0000
28.7400 622.0000 1.0000
28.7500 635.0000 1.0000
28.7600 631.0000 1.0000
28.7700 620.0000 1.0000
28.7800 617.0000 1.0000
28.7900 628.0000 1.0000
28.8000 656.0000 1.0000
28.8100 619.0000 1.0000
28.8200 633.0000 1.0000
28.8300 594.0000 1.0000
28.8400 601.0000 1.0000
28.8500 611.0000 1.0000
28.8600 615.0000 1.0000
28.8700 651.0000 1.0000
28.8800 667.0000 1.0000
28.8900 653.0000 1.0000
28.9000 632.0000 1.0000
28.9100 650.0000 1.0000
28.9200 631.0000 1.0000
28.9300 599.0000 1.0000
28.9400 627.0000 1.0000
28.9500 632.0000 1.0000
28.9600 622.0000 1.0000
28.9700 625.0000 1.0000
28.9800 646.0000 1.0000
28.9900 617.0000 1.0000
29.0000 644.0000 1.0000
29.0100 649.0000 1.0000
29.0200 612.0000 1.0000
29.0300 651.0000 1.0000
29.0400 627.0000 1.0000
29.0500 633.0000 1.0000
29.0600 639.0000 1.0000
29.0700 592.0000 1.0000
29.0800 604.0000 1.0000
29.0900 628.0000 1.0000
29.1000 598.0000 1.0000
29.1100 603.0000 1.0000
29.1200 631.0000 1.0000
29.1300 602.0000 1.0000
29.1400 609.0000 1.0000
29.1500 609.0000 1.0000
29.1600 604.0000 1.0000
29.1700 600.0000 1.0000
29.1800 631.0000 1.0000
29.1900 588.0000 1.0000
29.2000 613.0000 1.0000
29.2100 613.0000 1.0000
29.2200 582.0000 1.0000
29.2300 588.0000 1.0000
29.2400 601.0000 1.0000
29.2500 640.0000 1.0000
29.2600 629.0000 1.0000
29.2700 636.0000 1.0000
29.2800 615.0000 1.0000
29.2900 608.0000 1.0000
29.3000 659.0000 1.0000
29.3100 597.0000 1.0000
29.3200 612.0000 1.0000
29.3300 590.0000 1.0000
29.3400 605.0000 1.0000
29.3500 600.0000 1.0000
29.3600 638.0000 1.0000
29.3700 599.0000 1.0000
29.3800 596.0000 1.0000
29.3900 632.0000 1.0000
29.4000 600.0000 1.0000
29.4100 604.0000 1.0000
29.4200 606.0000 1.0000
29.4300 602.0000 1.0000
29.4400 631.0000 1.0000
29.4500 622.0000 1.0000
29.4600 636.0000 1.0000
29.4700 612.0000 1.0000
29.4800 627.0000 1.0000
29.4900 614.0000 1.0000
29.5000 605.0000 1.0000
29.5100 600.0000 1.0000
29.5200 629.0000 1.0000
29.5300 601.0000 1.0000
29.5400 625.0000 1.0000
29.5500 615.0000 1.0000
29.5600 622.0000 1.0000
29.5700 614.0000 1.0000
29.5800 601.0000 1.0000
29.5900 591.0000 1.0000
29.6000 597.0000 1.0000
29.6100 623.0000 1.0000
29.6200 611.0000 1.0000
29.6300 603.0000 1.0000
29.6400 598.0000 1.0000
29.6500 609.0000 1.0000
29.6600 608.0000 1.0000
29.6700 596.0000 1.0000
29.6800 636.0000 1.0000
29.6900 609.0000 1.0000
29.7000 616.0000 1.0000
29.7100 629.0000 1.0000
29.7200 631.0000 1.0000
29.7300 625.0000 1.0000
29.7400 593.0000 1.0000
29.7500 635.0000 1.0000
29.7600 629.0000 1.0000
29.7700 641.0000 1.0000
29.7800 592.0000 1.0000
29.7900 599.0000 1.0000
29.8000 588.0000 1.0000
29.8100 577.0000 1.0000
29.8200 553.0000 1.0000
29.8300 568.0000 1.0000
29.8400 593.0000 1.0000
29.8500 580.0000 1.0000
29.8600 573.0000 1.0000
29.8700 585.0000 1.0000
29.8800 635.0000 1.0000
29.8900 588.0000 1.0000
29.9000 613.0000 1.0000
29.9100 599.0000 1.0000
29.9200 601.0000 1.0000
29.9300 625.0000 1.0000
29.9400 628.0000 1.0000
29.9500 586.0000 1.0000
29.9600 626.0000 1.0000
29.9700 597.0000 1.0000
29.9800 601.0000 1.0000
29.9900 606.0000 1.0000
30.0000 617.0000 1.0000
30.0100 578.0000 1.0000
30.0200 593.0000 1.0000
30.0300 673.0000 1.0000
30.0400 623.0000 1.0000
30.0500 617.0000 1.0000
30.0600 622.0000 1.0000
30.0700 628.0000 1.0000
30.0800 584.0000 1.0000
30.0900 577.0000 1.0000
30.1000 615.0000 1.0000
30.1100 613.0000 1.0000
30.1200 574.0000 1.0000
30.1300 563.0000 1.0000
30.1400 591.0000 1.0000
30.1500 588.0000 1.0000
30.1600 584.0000 1.0000
30.1700 586.0000 1.0000
30.1800 567.0000 1.0000
30.1900 633.0000 1.0000
30.2000 578.0000 1.0000
30.2100 583.0000 1.0000
30.2200 602.0000 1.0000
30.2300 554.0000 1.0000
30.2400 611.0000 1.0000
30.2500 581.0000 1.0000
30.2600 613.0000 1.0000
30.2700 558.0000 1.0000
30.2800 620.0000 1.0000
30.2900 610.0000 1.0000
30.3000 605.0000 1.0000
30.3100 562.0000 1.0000
30.3200 560.0000 1.0000
30.3300 599.0000 1.0000
30.3400 574.0000 1.0000
30.3500 587.0000 1.0000
30.3600 602.0000 1.0000
30.3700 588.0000 1.0000
30.3800 614.0000 1.0000
30.3900 600.0000 1.0000
30.4000 579.0000 1.0000
30.4100 566.0000 1.0000
30.4200 578.0000 1.0000
30.4300 571.0000 1.0000
30.4400 639.0000 1.0000
30.4500 595.0000 1.0000
30.4600 601.0000 1.0000
30.4700 592.0000 1.0000
30.4800 602.0000 1.0000
30.4900 569.0000 1.0000
30.5000 576.0000 1.0000
30.5100 593.0000 1.0000
30.5200 574.0000 1.0000
30.5300 598.0000 1.0000
30.5400 592.0000 1.0000
30.5500 592.0000 1.0000
30.5600 599.0000 1.0000
30.5700 627.0000 1.0000
30.5800 608.0000 1.0000
30.5900 610.0000 1.0000
30.6000 609.0000 1.0000
30.6100 625.0000 1.0000
30.6200 580.0000 1.0000
30.6300 590.0000 1.0000
30.6400 559.0000 1.0000
30.6500 565.0000 1.0000
30.6600 592.0000 1.0000
30.6700 616.0000 1.0000
30.6800 589.0000 1.0000
30.6900 597.0000 1.0000
30.7000 627.0000 1.0000
30.7100 568.0000 1.0000
30.7200 541.0000 1.0000
30.7300 570.0000 1.0000
30.7400 594.0000 1.0000
30.7500 609.0000 1.0000
30.7600 542.0000 1.0000
30.7700 542.0000 1.0000
30.7800 592.0000 1.0000
30.7900 557.0000 1.0000
30.8000 607.0000 1.0000
30.8100 581.0000 1.0000
30.8200 586.0000 1.0000
30.8300 555.0000 1.0000
30.8400 568.0000 1.0000
30.8500 581.0000 1.0000
30.8600 595.0000 1.0000
30.8700 587.0000 1.0000
30.8800 529.0000 1.0000
30.8900 572.0000 1.0000
30.9000 560.0000 1.0000
30.9100 605.0000 1.0000
30.9200 584.0000 1.0000
30.9300 560.0000 1.0000
30.9400 568.0000 1.0000
30.9500 568.0000 1.0000
30.9600 542.0000 1.0000
30.9700 605.0000 1.0000
30.9800 563.0000 1.0000
30.9900 583.0000 1.0000
31.0000 602.0000 1.0000
31.0100 566.0000 1.0000
31.0200 574.0000 1.0000
31.0300 575.0000 1.0000
31.0400 584.0000 1.0000
31.0500 539.0000 1.0000
31.0600 612.0000 1.0000
31.0700 589.0000 1.0000
31.0800 609.0000 1.0000
31.0900 601.0000 1.0000
31.1000 532.0000 1.0000
31.1100 539.0000 1.0000
31.1200 544.0000 1.0000
31.1300 574.0000 1.0000
31.1400 579.0000 1.0000
31.1500 540.0000 1.0000
31.1600 604.0000 1.0000
31.1700 563.0000 1.0000
31.1800 554.0000 1.0000
31.1900 573.0000 1.0000
31.2000 575.0000 1.0000
31.2100 605.0000 1.0000
31.2200 579.0000 1.0000
31.2300 576.0000 1.0000
31.2400 586.0000 1.0000
31.2500 578.0000 1.0000
31.2600 579.0000 1.0000
31.2700 574.0000 1.0000
31.2800 571.0000 1.0000
31.2900 579.0000 1.0000
31.3000 597.0000 1.0000
31.3100 544.0000 1.0000
31.3200 548.0000 1.0000
31.3300 586.0000 1.0000
31.3400 570.0000 1.0000
31.3500 623.0000 1.0000
31.3600 640.0000 1.0000
31.3700 582.0000 1.0000
31.3800 565.0000 1.0000
31.3900 568.0000 1.0000
31.4000 598.0000 1.0000
31.4100 586.0000 1.0000
31.4200 564.0000 1.0000
31.4300 571.0000 1.0000
31.4400 524.0000 1.0000
31.4500 586.0000 1.0000
31.4600 549.0000 1.0000
31.4700 554.0000 1.0000
31.4800 582.0000 1.0000
31.4900 578.0000 1.0000
31.5000 567.0000 1.0000
31.5100 597.0000 1.0000
31.5200 546.0000 1.0000
31.5300 569.0000 1.0000
31.5400 541.0000 1.0000
31.5500 570.0000 1.0000
31.5600 583.0000 1.0000
31.5700 548.0000 1.0000
31.5800 562.0000 1.0000
31.5900 580.0000 1.0000
31.6000 551.0000 1.0000
31.6100 558.0000 1.0000
31.6200 560.0000 1.0000
31.6300 539.0000 1.0000
31.6400 530.0000 1.0000
31.6500 573.0000 1.0000
31.6600 574.0000 1.0000
31.6700 565.0000 1.0000
31.6800 533.0000 1.0000
31.6900 569.0000 1.0000
31.7000 578.0000 1.0000
31.7100 580.0000 1.0000
31.7200 561.0000 1.0000
31.7300 583.0000 1.0000
31.7400 581.0000 1.0000
31.7500 548.0000 1.0000
31.7600 566.0000 1.0000
31.7700 523.0000 1.0000
31.7800 579.0000 1.0000
31.7900 533.0000 1.0000
31.8000 566.0000 1.0000
31.8100 571.0000 1.0000
31.8200 563.0000 1.0000
31.8300 543.0000 1.0000
31.8400 582.0000 1.0000
31.8500 570.0000 1.0000
31.8600 518.0000 1.0000
31.8700 550.0000 1.0000
31.8800 563.0000 1.0000
31.8900 568.0000 1.0000
31.9000 540.0000 1.0000
31.9100 583.0000 1.0000
31.9200 557.0000 1.0000
31.9300 538.0000 1.0000
31.9400 567.0000 1.0000
31.9500 551.0000 1.0000
31.9600 534.0000 1.0000
31.9700 556.0000 1.0000
31.9800 578.0000 1.0000
31.9900 565.0000 1.0000
32.0000 547.0000 1.0000
32.0100 567.0000 1.0000
32.0200 560.0000 1.0000
32.0300 551.0000 1.0000
32.0400 546.0000 1.0000
32.0500 568.0000 1.0000
32.0600 559.0000 1.0000
32.0700 576.0000 1.0000
32.0800 527.0000 1.0000
32.0900 535.0000 1.0000
32.1000 580.0000 1.0000
32.1100 553.0000 1.0000
32.1200 549.0000 1.0000
32.1300 558.0000 1.0000
32.1400 540.0000 1.0000
32.1500 561.0000 1.0000
32.1600 563.0000 1.0000
32.1700 525.0000 1.0000
32.1800 556.0000 1.0000
32.1900 540.0000 1.0000
32.2000 554.0000 1.0000
32.2100 542.0000 1.0000
32.2200 501.0000 1.0000
32.2300 533.0000 1.0000
32.2400 534.0000 1.0000
32.2500 575.0000 1.0000
32.2600 532.0000 1.0000
32.2700 562.0000 1.0000
32.2800 521.0000 1.0000
32.2900 530.0000 1.0000
32.3000 509.0000 1.0000
32.3100 511.0000 1.0000
32.3200 572.0000 1.0000
32.3300 568.0000 1.0000
32.3400 522.0000 1.0000
32.3500 530.0000 1.0000
32.3600 558.0000 1.0000
32.3700 549.0000 1.0000
32.3800 577.0000 1.0000
32.3900 537.0000 1.0000
32.4000 552.0000 1.0000
32.4100 579.0000 1.0000
32.4200 550.0000 1.0000
32.4300 538.0000 1.0000
32.4400 544.0000 1.0000
32.4500 561.0000 1.0000
32.4600 523.0000 1.0000
32.4700 531.0000 1.0000
32.4800 540.0000 1.0000
32.4900 542.0000 1.0000
32.5000 527.0000 1.0000
32.5100 530.0000 1.0000
32.5200 524.0000 1.0000
32.5300 576.0000 1.0000
32.5400 564.0000 1.0000
32.5500 522.0000 1.0000
32.5600 532.0000 1.0000
32.5700 535.0000 1.0000
32.5800 553.0000 1.0000
32.5900 527.0000 1.0000
32.6000 541.0000 1.0000
32.6100 538.0000 1.0000
32.6200 518.0000 1.0000
32.6300 520.0000 1.0000
32.6400 502.0000 1.0000
32.6500 547.0000 1.0000
32.6600 546.0000 1.0000
32.6700 520.0000 1.0000
32.6800 509.0000 1.0000
32.6900 558.0000 1.0000
32.7000 529.0000 1.0000
32.7100 544.0000 1.0000
32.7200 545.0000 1.0000
32.7300 545.0000 1.0000
32.7400 590.0000 1.0000
32.7500 547.0000 1.0000
32.7600 586.0000 1.0000
32.7700 576.0000 1.0000
32.7800 589.0000 1.0000
32.7900 531.0000 1.0000
32.8000 559.0000 1.0000
32.8100 539.0000 1.0000
32.8200 510.0000 1.0000
32.8300 536.0000 1.0000
32.8400 526.0000 1.0000
32.8500 554.0000 1.0000
32.8600 536.0000 1.0000
32.8700 503.0000 1.0000
32.8800 513.0000 1.0000
32.8900 523.0000 1.0000
32.9000 551.0000 1.0000
32.9100 538.0000 1.0000
32.9200 532.0000 1.0000
32.9300 541.0000 1.0000
32.9400 540.0000 1.0000
32.9500 562.0000 1.0000
32.9600 508.0000 1.0000
32.9700 558.0000 1.0000
32.9800 549.0000 1.0000
32.9900 521.0000 1.0000
33.0000 526.0000 1.0000
33.0100 543.0000 1.0000
33.0200 535.0000 1.0000
33.0300 545.0000 1.0000
33.0400 507.0000 1.0000
33.0500 569.0000 1.0000
33.0600 554.0000 1.0000
33.0700 534.0000 1.0000
33.0800 522.0000 1.0000
33.0900 591.0000 1.0000
33.1000 549.0000 1.0000
33.1100 562.0000 1.0000
33.1200 600.0000 1.0000
33.1300 605.0000 1.0000
33.1400 570.0000 1.0000
33.1500 560.0000 1.0000
33.1600 615.0000 1.0000
33.1700 583.0000 1.0000
33.1800 614.0000 1.0000
33.1900 655.0000 1.0000
33.2000 633.0000 1.0000
33.2100 633.0000 1.0000
33.2200 607.0000 1.0000
33.2300 669.0000 1.0000
33.2400 660.0000 1.0000
33.2500 674.0000 1.0000
33.2600 624.0000 1.0000
33.2700 669.0000 1.0000
33.2800 692.0000 1.0000
33.2900 694.0000 1.0000
33.3000 691.0000 1.0000
33.3100 673.0000 1.0000
33.3200 665.0000 1.0000
33.3300 666.0000 1.0000
33.3400 732.0000 1.0000
33.3500 677.0000 1.0000
33.3600 710.0000 1.0000
33.3700 691.0000 1.0000
33.3800 698.0000 1.0000
33.3900 695.0000 1.0000
33.4000 673.0000 1.0000
33.4100 630.0000 1.0000
33.4200 668.0000 1.0000
33.4300 669.0000 1.0000
33.4400 607.0000 1.0000
33.4500 659.0000 1.0000
33.4600 641.0000 1.0000
33.4700 627.0000 1.0000
33.4800 632.0000 1.0000
33.4900 573.0000 1.0000
33.5000 597.0000 1.0000
33.5100 589.0000 1.0000
33.5200 617.0000 1.0000
33.5300 608.0000 1.0000
33.5400 608.0000 1.0000
33.5500 640.0000 1.0000
33.5600 651.0000 1.0000
33.5700 621.0000 1.0000
33.5800 607.0000 1.0000
33.5900 604.0000 1.0000
33.6000 664.0000 1.0000
33.6100 660.0000 1.0000
33.6200 637.0000 1.0000
33.6300 655.0000 1.0000
33.6400 655.0000 1.0000
33.6500 664.0000 1.0000
33.6600 648.0000 1.0000
33.6700 708.0000 1.0000
33.6800 729.0000 1.0000
33.6900 730.0000 1.0000
33.7000 755.0000 1.0000
33.7100 786.0000 1.0000
33.7200 826.0000 1.0000
33.7300 824.0000 1.0000
33.7400 871.0000 1.0000
33.7500 902.0000 1.0000
33.7600 918.0000 1.0000
33.7700 964.0000 1.0000
33.7800 959.0000 1.0000
33.7900 1008.0000 1.0000
33.8000 1097.0000 1.0000
33.8100 1153.0000 1.0000
33.8200 1187.0000 1.0000
33.8300 1209.0000 1.0000
33.8400 1324.0000 1.0000
33.8500 1341.0000 1.0000
33.8600 1345.0000 1.0000
33.8700 1337.0000 1.0000
33.8800 1328.0000 1.0000
33.8900 1331.0000 1.0000
33.9000 1343.0000 1.0000
33.9100 1328.0000 1.0000
33.9200 1280.0000 1.0000
33.9300 1233.0000 1.0000
33.9400 1160.0000 1.0000
33.9500 1181.0000 1.0000
33.9600 1193.0000 1.0000
33.9700 1115.0000 1.0000
33.9800 1019.0000 1.0000
33.9900 1015.0000 1.0000
34.0000 1013.0000 1.0000
34.0100 967.0000 1.0000
34.0200 932.0000 1.0000
34.0300 876.0000 1.0000
34.0400 833.0000 1.0000
34.0500 875.0000 1.0000
34.0600 771.0000 1.0000
34.0700 759.0000 1.0000
34.0800 714.0000 1.0000
34.0900 733.0000 1.0000
34.1000 696.0000 1.0000
34.1100 668.0000 1.0000
34.1200 631.0000 1.0000
34.1300 648.0000 1.0000
34.1400 639.0000 1.0000
34.1500 647.0000 1.0000
34.1600 693.0000 1.0000
34.1700 609.0000 1.0000
34.1800 611.0000 1.0000
34.1900 592.0000 1.0000
34.2000 619.0000 1.0000
34.2100 593.0000 1.0000
34.2200 589.0000 1.0000
34.2300 567.0000 1.0000
34.2400 584.0000 1.0000
34.2500 567.0000 1.0000
34.2600 523.0000 1.0000
34.2700 548.0000 1.0000
34.2800 566.0000 1.0000
34.2900 551.0000 1.0000
34.3000 537.0000 1.0000
34.3100 543.0000 1.0000
34.3200 517.0000 1.0000
34.3300 548.0000 1.0000
34.3400 543.0000 1.0000
34.3500 561.0000 1.0000
34.3600 535.0000 1.0000
34.3700 529.0000 1.0000
34.3800 518.0000 1.0000
34.3900 506.0000 1.0000
34.4000 501.0000 1.0000
34.4100 527.0000 1.0000
34.4200 506.0000 1.0000
34.4300 496.0000 1.0000
34.4400 488.0000 1.0000
34.4500 534.0000 1.0000
34.4600 502.0000 1.0000
34.4700 513.0000 1.0000
34.4800 493.0000 1.0000
34.4900 460.0000 1.0000
34.5000 512.0000 1.0000
34.5100 527.0000 1.0000
34.5200 507.0000 1.0000
34.5300 501.0000 1.0000
34.5400 510.0000 1.0000
34.5500 508.0000 1.0000
34.5600 507.0000 1.0000
34.5700 476.0000 1.0000
34.5800 517.0000 1.0000
34.5900 513.0000 1.0000
34.6000 488.0000 1.0000
34.6100 497.0000 1.0000
34.6200 490.0000 1.0000
34.6300 503.0000 1.0000
34.6400 493.0000 1.0000
34.6500 481.0000 1.0000
34.6600 502.0000 1.0000
34.6700 506.0000 1.0000
34.6800 475.0000 1.0000
34.6900 465.0000 1.0000
34.7000 478.0000 1.0000
34.7100 504.0000 1.0000
34.7200 489.0000 1.0000
34.7300 508.0000 1.0000
34.7400 450.0000 1.0000
34.7500 453.0000 1.0000
34.7600 465.0000 1.0000
34.7700 450.0000 1.0000
34.7800 480.0000 1.0000
34.7900 476.0000 1.0000
34.8000 495.0000 1.0000
34.8100 455.0000 1.0000
34.8200 496.0000 1.0000
34.8300 464.0000 1.0000
34.8400 482.0000 1.0000
34.8500 479.0000 1.0000
34.8600 473.0000 1.0000
34.8700 465.0000 1.0000
34.8800 454.0000 1.0000
34.8900 487.0000 1.0000
34.9000 441.0000 1.0000
34.9100 447.0000 1.0000
34.9200 489.0000 1.0000
34.9300 460.0000 1.0000
34.9400 482.0000 1.0000
34.9500 448.0000 1.0000
34.9600 455.0000 1.0000
34.9700 459.0000 1.0000
34.9800 441.0000 1.0000
34.9900 439.0000 1.0000
35.0000 495.0000 1.0000
35.0100 478.0000 1.0000
35.0200 450.0000 1.0000
35.0300 457.0000 1.0000
35.0400 493.0000 1.0000
35.0500 479.0000 1.0000
35.0600 469.0000 1.0000
35.0700 446.0000 1.0000
35.0800 454.0000 1.0000
35.0900 491.0000 1.0000
35.1000 463.0000 1.0000
35.1100 460.0000 1.0000
35.1200 471.0000 1.0000
35.1300 461.0000 1.0000
35.1400 453.0000 1.0000
35.1500 461.0000 1.0000
35.1600 443.0000 1.0000
35.1700 445.0000 1.0000
35.1800 449.0000 1.0000
35.1900 460.0000 1.0000
35.2000 440.0000 1.0000
35.2100 419.0000 1.0000
35.2200 462.0000 1.0000
35.2300 472.0000 1.0000
35.2400 474.0000 1.0000
35.2500 440.0000 1.0000
35.2600 473.0000 1.0000
35.2700 470.0000 1.0000
35.2800 497.0000 1.0000
35.2900 454.0000 1.0000
35.3000 465.0000 1.0000
35.3100 475.0000 1.0000
35.3200 444.0000 1.0000
35.3300 441.0000 1.0000
35.3400 469.0000 1.0000
35.3500 447.0000 1.0000
35.3600 431.0000 1.0000
35.3700 465.0000 1.0000
35.3800 491.0000 1.0000
35.3900 458.0000 1.0000
35.4000 448.0000 1.0000
35.4100 448.0000 1.0000
35.4200 459.0000 1.0000
35.4300 435.0000 1.0000
35.4400 488.0000 1.0000
35.4500 439.0000 1.0000
35.4600 499.0000 1.0000
35.4700 467.0000 1.0000
35.4800 464.0000 1.0000
35.4900 431.0000 1.0000
35.5000 480.0000 1.0000
35.5100 452.0000 1.0000
35.5200 453.0000 1.0000
35.5300 487.0000 1.0000
35.5400 468.0000 1.0000
35.5500 457.0000 1.0000
35.5600 497.0000 1.0000
35.5700 520.0000 1.0000
35.5800 496.0000 1.0000
35.5900 534.0000 1.0000
35.6000 529.0000 1.0000
35.6100 539.0000 1.0000
35.6200 525.0000 1.0000
35.6300 570.0000 1.0000
35.6400 529.0000 1.0000
35.6500 583.0000 1.0000
35.6600 584.0000 1.0000
35.6700 630.0000 1.0000
35.6800 600.0000 1.0000
35.6900 590.0000 1.0000
35.7000 611.0000 1.0000
35.7100 629.0000 1.0000
35.7200 655.0000 1.0000
35.7300 680.0000 1.0000
35.7400 665.0000 1.0000
35.7500 698.0000 1.0000
35.7600 731.0000 1.0000
35.7700 752.0000 1.0000
35.7800 745.0000 1.0000
35.7900 764.0000 1.0000
35.8000 716.0000 1.0000
35.8100 684.0000 1.0000
35.8200 738.0000 1.0000
35.8300 758.0000 1.0000
35.8400 748.0000 1.0000
35.8500 738.0000 1.0000
35.8600 723.0000 1.0000
35.8700 726.0000 1.0000
35.8800 716.0000 1.0000
35.8900 687.0000 1.0000
35.9000 618.0000 1.0000
35.9100 656.0000 1.0000
35.9200 649.0000 1.0000
35.9300 603.0000 1.0000
35.9400 570.0000 1.0000
35.9500 551.0000 1.0000
35.9600 572.0000 1.0000
35.9700 544.0000 1.0000
35.9800 501.0000 1.0000
35.9900 524.0000 1.0000
36.0000 521.0000 1.0000
36.0100 500.0000 1.0000
36.0200 479.0000 1.0000
36.0300 497.0000 1.0000
36.0400 478.0000 1.0000
36.0500 494.0000 1.0000
36.0600 474.0000 1.0000
36.0700 463.0000 1.0000
36.0800 444.0000 1.0000
36.0900 457.0000 1.0000
36.1000 458.0000 1.0000
36.1100 433.0000 1.0000
36.1200 461.0000 1.0000
36.1300 426.0000 1.0000
36.1400 429.0000 1.0000
36.1500 448.0000 1.0000
36.1600 441.0000 1.0000
36.1700 438.0000 1.0000
36.1800 418.0000 1.0000
36.1900 426.0000 1.0000
36.2000 435.0000 1.0000
36.2100 416.0000 1.0000
36.2200 420.0000 1.0000
36.2300 444.0000 1.0000
36.2400 427.0000 1.0000
36.2500 427.0000 1.0000
36.2600 426.0000 1.0000
36.2700 443.0000 1.0000
36.2800 434.0000 1.0000
36.2900 437.0000 1.0000
36.3000 443.0000 1.0000
36.3100 418.0000 1.0000
36.3200 458.0000 1.0000
36.3300 439.0000 1.0000
36.3400 400.0000 1.0000
36.3500 410.0000 1.0000
36.3600 403.0000 1.0000
36.3700 428.0000 1.0000
36.3800 445.0000 1.0000
36.3900 440.0000 1.0000
36.4000 419.0000 1.0000
36.4100 418.0000 1.0000
36.4200 441.0000 1.0000
36.4300 423.0000 1.0000
36.4400 432.0000 1.0000
36.4500 429.0000 1.0000
36.4600 444.0000 1.0000
36.4700 420.0000 1.0000
36.4800 441.0000 1.0000
36.4900 424.0000 1.0000
36.5000 387.0000 1.0000
36.5100 413.0000 1.0000
36.5200 435.0000 1.0000
36.5300 423.0000 1.0000
36.5400 393.0000 1.0000
36.5500 428.0000 1.0000
36.5600 430.0000 1.0000
36.5700 393.0000 1.0000
36.5800 422.0000 1.0000
36.5900 436.0000 1.0000
36.6000 426.0000 1.0000
36.6100 428.0000 1.0000
36.6200 412.0000 1.0000
36.6300 413.0000 1.0000
36.6400 430.0000 1.0000
36.6500 406.0000 1.0000
36.6600 403.0000 1.0000
36.6700 416.0000 1.0000
36.6800 441.0000 1.0000
36.6900 425.0000 1.0000
36.7000 426.0000 1.0000
36.7100 436.0000 1.0000
36.7200 421.0000 1.0000
36.7300 422.0000 1.0000
36.7400 422.0000 1.0000
36.7500 431.0000 1.0000
36.7600 449.0000 1.0000
36.7700 417.0000 1.0000
36.7800 440.0000 1.0000
36.7900 416.0000 1.0000
36.8000 403.0000 1.0000
36.8100 421.0000 1.0000
36.8200 393.0000 1.0000
36.8300 420.0000 1.0000
36.8400 406.0000 1.0000
36.8500 421.0000 1.0000
36.8600 440.0000 1.0000
36.8700 430.0000 1.0000
36.8800 400.0000 1.0000
36.8900 422.0000 1.0000
36.9000 418.0000 1.0000
36.9100 447.0000 1.0000
36.9200 437.0000 1.0000
36.9300 380.0000 1.0000
36.9400 409.0000 1.0000
36.9500 423.0000 1.0000
36.9600 428.0000 1.0000
36.9700 428.0000 1.0000
36.9800 425.0000 1.0000
36.9900 422.0000 1.0000
37.0000 443.0000 1.0000
37.0100 428.0000 1.0000
37.0200 423.0000 1.0000
37.0300 377.0000 1.0000
37.0400 424.0000 1.0000
37.0500 443.0000 1.0000
37.0600 387.0000 1.0000
37.0700 434.0000 1.0000
37.0800 415.0000 1.0000
37.0900 401.0000 1.0000
37.1000 418.0000 1.0000
37.1100 414.0000 1.0000
37.1200 415.0000 1.0000
37.1300 396.0000 1.0000
37.1400 447.0000 1.0000
37.1500 417.0000 1.0000
37.1600 424.0000 1.0000
37.1700 426.0000 1.0000
37.1800 406.0000 1.0000
37.1900 431.0000 1.0000
37.2000 421.0000 1.0000
37.2100 423.0000 1.0000
37.2200 403.0000 1.0000
37.2300 385.0000 1.0000
37.2400 450.0000 1.0000
37.2500 428.0000 1.0000
37.2600 418.0000 1.0000
37.2700 413.0000 1.0000
37.2800 427.0000 1.0000
37.2900 426.0000 1.0000
37.3000 422.0000 1.0000
37.3100 455.0000 1.0000
37.3200 410.0000 1.0000
37.3300 405.0000 1.0000
37.3400 396.0000 1.0000
37.3500 435.0000 1.0000
37.3600 437.0000 1.0000
37.3700 445.0000 1.0000
37.3800 441.0000 1.0000
37.3900 453.0000 1.0000
37.4000 438.0000 1.0000
37.4100 436.0000 1.0000
37.4200 492.0000 1.0000
37.4300 431.0000 1.0000
37.4400 459.0000 1.0000
37.4500 419.0000 1.0000
37.4600 457.0000 1.0000
37.4700 449.0000 1.0000
37.4800 425.0000 1.0000
37.4900 423.0000 1.0000
37.5000 419.0000 1.0000
37.5100 461.0000 1.0000
37.5200 445.0000 1.0000
37.5300 457.0000 1.0000
37.5400 461.0000 1.0000
37.5500 475.0000 1.0000
37.5600 483.0000 1.0000
37.5700 505.0000 1.0000
37.5800 524.0000 1.0000
37.5900 510.0000 1.0000
37.6000 510.0000 1.0000
37.6100 513.0000 1.0000
37.6200 485.0000 1.0000
37.6300 555.0000 1.0000
37.6400 542.0000 1.0000
37.6500 600.0000 1.0000
37.6600 596.0000 1.0000
37.6700 600.0000 1.0000
37.6800 665.0000 1.0000
37.6900 714.0000 1.0000
37.7000 695.0000 1.0000
37.7100 716.0000 1.0000
37.7200 787.0000 1.0000
37.7300 871.0000 1.0000
37.7400 839.0000 1.0000
37.7500 944.0000 1.0000
37.7600 1022.0000 1.0000
37.7700 1060.0000 1.0000
37.7800 1086.0000 1.0000
37.7900 1144.0000 1.0000
37.8000 1249.0000 1.0000
37.8100 1350.0000 1.0000
37.8200 1470.0000 1.0000
37.8300 1488.0000 1.0000
37.8400 1570.0000 1.0000
37.8500 1728.0000 1.0000
37.8600 1731.0000 1.0000
37.8700 1822.0000 1.0000
37.8800 1844.0000 1.0000
37.8900 1965.0000 1.0000
37.9000 2015.0000 1.0000
37.9100 2086.0000 1.0000
37.9200 2144.0000 1.0000
37.9300 2092.0000 1.0000
37.9400 2154.0000 1.0000
37.9500 2049.0000 1.0000
37.9600 2011.0000 1.0000
37.9700 1989.0000 1.0000
37.9800 2036.0000 1.0000
37.9900 2021.0000 1.0000
38.0000 1910.0000 1.0000
38.0100 1837.0000 1.0000
38.0200 1816.0000 1.0000
38.0300 1669.0000 1.0000
38.0400 1573.0000 1.0000
38.0500 1533.0000 1.0000
38.0600 1448.0000 1.0000
38.0700 1387.0000 1.0000
38.0800 1271.0000 1.0000
38.0900 1135.0000 1.0000
38.1000 1107.0000 1.0000
38.1100 994.0000 1.0000
38.1200 960.0000 1.0000
38.1300 900.0000 1.0000
38.1400 914.0000 1.0000
38.1500 823.0000 1.0000
38.1600 832.0000 1.0000
38.1700 807.0000 1.0000
38.1800 730.0000 1.0000
38.1900 687.0000 1.0000
38.2000 678.0000 1.0000
38.2100 613.0000 1.0000
38.2200 592.0000 1.0000
38.2300 593.0000 1.0000
38.2400 622.0000 1.0000
38.2500 603.0000 1.0000
38.2600 563.0000 1.0000
38.2700 534.0000 1.0000
38.2800 522.0000 1.0000
38.2900 533.0000 1.0000
38.3000 509.0000 1.0000
38.3100 467.0000 1.0000
38.3200 475.0000 1.0000
38.3300 467.0000 1.0000
38.3400 474.0000 1.0000
38.3500 479.0000 1.0000
38.3600 464.0000 1.0000
38.3700 451.0000 1.0000
38.3800 455.0000 1.0000
38.3900 437.0000 1.0000
38.4000 463.0000 1.0000
38.4100 404.0000 1.0000
38.4200 435.0000 1.0000
38.4300 422.0000 1.0000
38.4400 400.0000 1.0000
38.4500 410.0000 1.0000
38.4600 394.0000 1.0000
38.4700 438.0000 1.0000
38.4800 431.0000 1.0000
38.4900 400.0000 1.0000
38.5000 385.0000 1.0000
38.5100 419.0000 1.0000
38.5200 402.0000 1.0000
38.5300 387.0000 1.0000
38.5400 379.0000 1.0000
38.5500 422.0000 1.0000
38.5600 417.0000 1.0000
38.5700 416.0000 1.0000
38.5800 406.0000 1.0000
38.5900 409.0000 1.0000
38.6000 389.0000 1.0000
38.6100 358.0000 1.0000
38.6200 413.0000 1.0000
38.6300 380.0000 1.0000
38.6400 364.0000 1.0000
38.6500 403.0000 1.0000
38.6600 434.0000 1.0000
38.6700 411.0000 1.0000
38.6800 384.0000 1.0000
38.6900 400.0000 1.0000
38.7000 400.0000 1.0000
38.7100 374.0000 1.0000
38.7200 375.0000 1.0000
38.7300 390.0000 1.0000
38.7400 397.0000 1.0000
38.7500 407.0000 1.0000
38.7600 407.0000 1.0000
38.7700 415.0000 1.0000
38.7800 411.0000 1.0000
38.7900 397.0000 1.0000
38.8000 399.0000 1.0000
38.8100 384.0000 1.0000
38.8200 381.0000 1.0000
38.8300 396.0000 1.0000
38.8400 371.0000 1.0000
38.8500 388.0000 1.0000
38.8600 398.0000 1.0000
38.8700 410.0000 1.0000
38.8800 409.0000 1.0000
38.8900 394.0000 1.0000
38.9000 396.0000 1.0000
38.9100 398.0000 1.0000
38.9200 376.0000 1.0000
38.9300 399.0000 1.0000
38.9400 396.0000 1.0000
38.9500 379.0000 1.0000
38.9600 368.0000 1.0000
38.9700 401.0000 1.0000
38.9800 398.0000 1.0000
38.9900 409.0000 1.0000
39.0000 402.0000 1.0000
39.0100 406.0000 1.0000
39.0200 371.0000 1.0000
39.0300 420.0000 1.0000
39.0400 397.0000 1.0000
39.0500 373.0000 1.0000
39.0600 401.0000 1.0000
39.0700 394.0000 1.0000
39.0800 440.0000 1.0000
39.0900 416.0000 1.0000
39.1000 391.0000 1.0000
39.1100 403.0000 1.0000
39.1200 382.0000 1.0000
39.1300 369.0000 1.0000
39.1400 393.0000 1.0000
39.1500 367.0000 1.0000
39.1600 363.0000 1.0000
39.1700 377.0000 1.0000
39.1800 401.0000 1.0000
39.1900 397.0000 1.0000
39.2000 373.0000 1.0000
39.2100 371.0000 1.0000
39.2200 357.0000 1.0000
39.2300 366.0000 1.0000
39.2400 399.0000 1.0000
39.2500 375.0000 1.0000
39.2600 362.0000 1.0000
39.2700 329.0000 1.0000
39.2800 373.0000 1.0000
39.2900 378.0000 1.0000
39.3000 360.0000 1.0000
39.3100 373.0000 1.0000
39.3200 382.0000 1.0000
39.3300 335.0000 1.0000
39.3400 357.0000 1.0000
39.3500 341.0000 1.0000
39.3600 364.0000 1.0000
39.3700 403.0000 1.0000
39.3800 383.0000 1.0000
39.3900 389.0000 1.0000
39.4000 368.0000 1.0000
39.4100 394.0000 1.0000
39.4200 360.0000 1.0000
39.4300 367.0000 1.0000
39.4400 349.0000 1.0000
39.4500 361.0000 1.0000
39.4600 358.0000 1.0000
39.4700 361.0000 1.0000
39.4800 345.0000 1.0000
39.4900 351.0000 1.0000
39.5000 365.0000 1.0000
39.5100 389.0000 1.0000
39.5200 376.0000 1.0000
39.5300 375.0000 1.0000
39.5400 352.0000 1.0000
39.5500 358.0000 1.0000
39.5600 374.0000 1.0000
39.5700 381.0000 1.0000
39.5800 339.0000 1.0000
39.5900 336.0000 1.0000
39.6000 378.0000 1.0000
39.6100 376.0000 1.0000
39.6200 376.0000 1.0000
39.6300 397.0000 1.0000
39.6400 370.0000 1.0000
39.6500 363.0000 1.0000
39.6600 367.0000 1.0000
39.6700 409.0000 1.0000
39.6800 346.0000 1.0000
39.6900 344.0000 1.0000
39.7000 364.0000 1.0000
39.7100 341.0000 1.0000
39.7200 322.0000 1.0000
39.7300 355.0000 1.0000
39.7400 381.0000 1.0000
39.7500 370.0000 1.0000
39.7600 342.0000 1.0000
39.7700 354.0000 1.0000
39.7800 377.0000 1.0000
39.7900 358.0000 1.0000
39.8000 380.0000 1.0000
39.8100 338.0000 1.0000
39.8200 320.0000 1.0000
39.8300 373.0000 1.0000
39.8400 369.0000 1.0000
39.8500 325.0000 1.0000
39.8600 344.0000 1.0000
39.8700 329.0000 1.0000
39.8800 351.0000 1.0000
39.8900 375.0000 1.0000
39.9000 357.0000 1.0000
39.9100 356.0000 1.0000
39.9200 346.0000 1.0000
39.9300 381.0000 1.0000
39.9400 377.0000 1.0000
39.9500 345.0000 1.0000
39.9600 336.0000 1.0000
39.9700 379.0000 1.0000
39.9800 375.0000 1.0000
39.9900 357.0000 1.0000
40.0000 358.0000 1.0000
40.0100 347.0000 1.0000
40.0200 337.0000 1.0000
40.0300 362.0000 1.0000
40.0400 351.0000 1.0000
40.0500 344.0000 1.0000
40.0600 354.0000 1.0000
40.0700 368.0000 1.0000
40.0800 373.0000 1.0000
40.0900 352.0000 1.0000
40.1000 332.0000 1.0000
40.1100 326.0000 1.0000
40.1200 350.0000 1.0000
40.1300 358.0000 1.0000
40.1400 341.0000 1.0000
40.1500 350.0000 1.0000
40.1600 324.0000 1.0000
40.1700 345.0000 1.0000
40.1800 356.0000 1.0000
40.1900 336.0000 1.0000
40.2000 374.0000 1.0000
40.2100 345.0000 1.0000
40.2200 339.0000 1.0000
40.2300 352.0000 1.0000
40.2400 362.0000 1.0000
40.2500 359.0000 1.0000
40.2600 355.0000 1.0000
40.2700 352.0000 1.0000
40.2800 334.0000 1.0000
40.2900 377.0000 1.0000
40.3000 352.0000 1.0000
40.3100 358.0000 1.0000
40.3200 335.0000 1.0000
40.3300 333.0000 1.0000
40.3400 324.0000 1.0000
40.3500 343.0000 1.0000
40.3600 337.0000 1.0000
40.3700 326.0000 1.0000
40.3800 336.0000 1.0000
40.3900 351.0000 1.0000
40.4000 340.0000 1.0000
40.4100 327.0000 1.0000
40.4200 379.0000 1.0000
40.4300 335.0000 1.0000
40.4400 342.0000 1.0000
40.4500 348.0000 1.0000
40.4600 339.0000 1.0000
40.4700 350.0000 1.0000
40.4800 365.0000 1.0000
40.4900 337.0000 1.0000
40.5000 330.0000 1.0000
40.5100 356.0000 1.0000
40.5200 326.0000 1.0000
40.5300 345.0000 1.0000
40.5400 369.0000 1.0000
40.5500 379.0000 1.0000
40.5600 353.0000 1.0000
40.5700 360.0000 1.0000
40.5800 357.0000 1.0000
40.5900 337.0000 1.0000
40.6000 336.0000 1.0000
40.6100 364.0000 1.0000
40.6200 354.0000 1.0000
40.6300 358.0000 1.0000
40.6400 360.0000 1.0000
40.6500 366.0000 1.0000
40.6600 359.0000 1.0000
40.6700 322.0000 1.0000
40.6800 367.0000 1.0000
40.6900 363.0000 1.0000
40.7000 347.0000 1.0000
40.7100 337.0000 1.0000
40.7200 372.0000 1.0000
40.7300 333.0000 1.0000
40.7400 336.0000 1.0000
40.7500 361.0000 1.0000
40.7600 361.0000 1.0000
40.7700 351.0000 1.0000
40.7800 358.0000 1.0000
40.7900 341.0000 1.0000
40.8000 352.0000 1.0000
40.8100 380.0000 1.0000
40.8200 360.0000 1.0000
40.8300 358.0000 1.0000
40.8400 367.0000 1.0000
40.8500 343.0000 1.0000
40.8600 338.0000 1.0000
40.8700 344.0000 1.0000
40.8800 380.0000 1.0000
40.8900 374.0000 1.0000
40.9000 368.0000 1.0000
40.9100 380.0000 1.0000
40.9200 350.0000 1.0000
40.9300 356.0000 1.0000
40.9400 357.0000 1.0000
40.9500 376.0000 1.0000
40.9600 357.0000 1.0000
40.9700 379.0000 1.0000
40.9800 388.0000 1.0000
40.9900 390.0000 1.0000
41.0000 366.0000 1.0000
41.0100 355.0000 1.0000
41.0200 371.0000 1.0000
41.0300 410.0000 1.0000
41.0400 385.0000 1.0000
41.0500 378.0000 1.0000
41.0600 394.0000 1.0000
41.0700 393.0000 1.0000
41.0800 368.0000 1.0000
41.0900 363.0000 1.0000
41.1000 364.0000 1.0000
41.1100 374.0000 1.0000
41.1200 389.0000 1.0000
41.1300 403.0000 1.0000
41.1400 378.0000 1.0000
41.1500 384.0000 1.0000
41.1600 384.0000 1.0000
41.1700 346.0000 1.0000
41.1800 363.0000 1.0000
41.1900 378.0000 1.0000
41.2000 341.0000 1.0000
41.2100 336.0000 1.0000
41.2200 364.0000 1.0000
41.2300 346.0000 1.0000
41.2400 329.0000 1.0000
41.2500 351.0000 1.0000
41.2600 313.0000 1.0000
41.2700 317.0000 1.0000
41.2800 333.0000 1.0000
41.2900 340.0000 1.0000
41.3000 329.0000 1.0000
41.3100 322.0000 1.0000
41.3200 352.0000 1.0000
41.3300 362.0000 1.0000
41.3400 356.0000 1.0000
41.3500 344.0000 1.0000
41.3600 357.0000 1.0000
41.3700 336.0000 1.0000
41.3800 343.0000 1.0000
41.3900 342.0000 1.0000
41.4000 303.0000 1.0000
41.4100 349.0000 1.0000
41.4200 323.0000 1.0000
41.4300 346.0000 1.0000
41.4400 352.0000 1.0000
41.4500 352.0000 1.0000
41.4600 336.0000 1.0000
41.4700 354.0000 1.0000
41.4800 358.0000 1.0000
41.4900 370.0000 1.0000
41.5000 364.0000 1.0000
41.5100 335.0000 1.0000
41.5200 350.0000 1.0000
41.5300 347.0000 1.0000
41.5400 370.0000 1.0000
41.5500 373.0000 1.0000
41.5600 375.0000 1.0000
41.5700 353.0000 1.0000
41.5800 346.0000 1.0000
41.5900 343.0000 1.0000
41.6000 343.0000 1.0000
41.6100 317.0000 1.0000
41.6200 333.0000 1.0000
41.6300 336.0000 1.0000
41.6400 328.0000 1.0000
41.6500 340.0000 1.0000
41.6600 321.0000 1.0000
41.6700 343.0000 1.0000
41.6800 341.0000 1.0000
41.6900 328.0000 1.0000
41.7000 334.0000 1.0000
41.7100 346.0000 1.0000
41.7200 346.0000 1.0000
41.7300 365.0000 1.0000
41.7400 331.0000 1.0000
41.7500 337.0000 1.0000
41.7600 315.0000 1.0000
41.7700 314.0000 1.0000
41.7800 359.0000 1.0000
41.7900 340.0000 1.0000
41.8000 340.0000 1.0000
41.8100 310.0000 1.0000
41.8200 328.0000 1.0000
41.8300 351.0000 1.0000
41.8400 345.0000 1.0000
41.8500 329.0000 1.0000
41.8600 336.0000 1.0000
41.8700 356.0000 1.0000
41.8800 343.0000 1.0000
41.8900 351.0000 1.0000
41.9000 323.0000 1.0000
41.9100 327.0000 1.0000
41.9200 334.0000 1.0000
41.9300 330.0000 1.0000
41.9400 342.0000 1.0000
41.9500 327.0000 1.0000
41.9600 348.0000 1.0000
41.9700 320.0000 1.0000
41.9800 343.0000 1.0000
41.9900 347.0000 1.0000
42.0000 337.0000 1.0000
42.0100 322.0000 1.0000
42.0200 351.0000 1.0000
42.0300 356.0000 1.0000
42.0400 340.0000 1.0000
42.0500 331.0000 1.0000
42.0600 340.0000 1.0000
42.0700 348.0000 1.0000
42.0800 343.0000 1.0000
42.0900 322.0000 1.0000
42.1000 361.0000 1.0000
42.1100 336.0000 1.0000
42.1200 343.0000 1.0000
42.1300 350.0000 1.0000
42.1400 378.0000 1.0000
42.1500 327.0000 1.0000
42.1600 334.0000 1.0000
42.1700 328.0000 1.0000
42.1800 346.0000 1.0000
42.1900 332.0000 1.0000
42.2000 303.0000 1.0000
42.2100 328.0000 1.0000
42.2200 341.0000 1.0000
42.2300 325.0000 1.0000
42.2400 314.0000 1.0000
42.2500 359.0000 1.0000
42.2600 316.0000 1.0000
42.2700 343.0000 1.0000
42.2800 362.0000 1.0000
42.2900 340.0000 1.0000
42.3000 334.0000 1.0000
42.3100 362.0000 1.0000
42.3200 373.0000 1.0000
42.3300 366.0000 1.0000
42.3400 324.0000 1.0000
42.3500 316.0000 1.0000
42.3600 336.0000 1.0000
42.3700 357.0000 1.0000
42.3800 328.0000 1.0000
42.3900 357.0000 1.0000
42.4000 342.0000 1.0000
42.4100 318.0000 1.0000
42.4200 321.0000 1.0000
42.4300 359.0000 1.0000
42.4400 341.0000 1.0000
42.4500 337.0000 1.0000
42.4600 352.0000 1.0000
42.4700 357.0000 1.0000
42.4800 326.0000 1.0000
42.4900 326.0000 1.0000
42.5000 333.0000 1.0000
42.5100 369.0000 1.0000
42.5200 369.0000 1.0000
42.5300 362.0000 1.0000
42.5400 351.0000 1.0000
42.5500 352.0000 1.0000
42.5600 357.0000 1.0000
42.5700 377.0000 1.0000
42.5800 396.0000 1.0000
42.5900 370.0000 1.0000
42.6000 355.0000 1.0000
42.6100 387.0000 1.0000
42.6200 398.0000 1.0000
42.6300 352.0000 1.0000
42.6400 338.0000 1.0000
42.6500 377.0000 1.0000
42.6600 376.0000 1.0000
42.6700 365.0000 1.0000
42.6800 354.0000 1.0000
42.6900 376.0000 1.0000
42.7000 399.0000 1.0000
42.7100 386.0000 1.0000
42.7200 368.0000 1.0000
42.7300 378.0000 1.0000
42.7400 370.0000 1.0000
42.7500 376.0000 1.0000
42.7600 358.0000 1.0000
42.7700 345.0000 1.0000
42.7800 376.0000 1.0000
42.7900 336.0000 1.0000
42.8000 347.0000 1.0000
42.8100 363.0000 1.0000
42.8200 348.0000 1.0000
42.8300 345.0000 1.0000
42.8400 337.0000 1.0000
42.8500 331.0000 1.0000
42.8600 312.0000 1.0000
42.8700 340.0000 1.0000
42.8800 341.0000 1.0000
42.8900 351.0000 1.0000
42.9000 352.0000 1.0000
42.9100 310.0000 1.0000
42.9200 338.0000 1.0000
42.9300 340.0000 1.0000
42.9400 314.0000 1.0000
42.9500 334.0000 1.0000
42.9600 362.0000 1.0000
42.9700 363.0000 1.0000
42.9800 355.0000 1.0000
42.9900 304.0000 1.0000
43.0000 300.0000 1.0000
43.0100 350.0000 1.0000
43.0200 339.0000 1.0000
43.0300 330.0000 1.0000
43.0400 303.0000 1.0000
43.0500 323.0000 1.0000
43.0600 320.0000 1.0000
43.0700 336.0000 1.0000
43.0800 339.0000 1.0000
43.0900 329.0000 1.0000
43.1000 313.0000 1.0000
43.1100 299.0000 1.0000
43.1200 316.0000 1.0000
43.1300 339.0000 1.0000
43.1400 318.0000 1.0000
43.1500 309.0000 1.0000
43.1600 300.0000 1.0000
43.1700 324.0000 1.0000
43.1800 321.0000 1.0000
43.1900 343.0000 1.0000
43.2000 305.0000 1.0000
43.2100 320.0000 1.0000
43.2200 369.0000 1.0000
43.2300 334.0000 1.0000
43.2400 304.0000 1.0000
43.2500 317.0000 1.0000
43.2600 366.0000 1.0000
43.2700 340.0000 1.0000
43.2800 350.0000 1.0000
43.2900 313.0000 1.0000
43.3000 332.0000 1.0000
43.3100 320.0000 1.0000
43.3200 331.0000 1.0000
43.3300 332.0000 1.0000
43.3400 301.0000 1.0000
43.3500 317.0000 1.0000
43.3600 304.0000 1.0000
43.3700 300.0000 1.0000
43.3800 316.0000 1.0000
43.3900 344.0000 1.0000
43.4000 351.0000 1.0000
43.4100 353.0000 1.0000
43.4200 327.0000 1.0000
43.4300 338.0000 1.0000
43.4400 322.0000 1.0000
43.4500 336.0000 1.0000
43.4600 304.0000 1.0000
43.4700 333.0000 1.0000
43.4800 341.0000 1.0000
43.4900 331.0000 1.0000
43.5000 315.0000 1.0000
43.5100 324.0000 1.0000
43.5200 324.0000 1.0000
43.5300 352.0000 1.0000
43.5400 341.0000 1.0000
43.5500 339.0000 1.0000
43.5600 347.0000 1.0000
43.5700 335.0000 1.0000
43.5800 342.0000 1.0000
43.5900 308.0000 1.0000
43.6000 345.0000 1.0000
43.6100 334.0000 1.0000
43.6200 308.0000 1.0000
43.6300 335.0000 1.0000
43.6400 335.0000 1.0000
43.6500 321.0000 1.0000
43.6600 331.0000 1.0000
43.6700 317.0000 1.0000
43.6800 336.0000 1.0000
43.6900 354.0000 1.0000
43.7000 332.0000 1.0000
43.7100 322.0000 1.0000
43.7200 349.0000 1.0000
43.7300 328.0000 1.0000
43.7400 337.0000 1.0000
43.7500 335.0000 1.0000
43.7600 330.0000 1.0000
43.7700 337.0000 1.0000
43.7800 303.0000 1.0000
43.7900 325.0000 1.0000
43.8000 302.0000 1.0000
43.8100 295.0000 1.0000
43.8200 337.0000 1.0000
43.8300 341.0000 1.0000
43.8400 382.0000 1.0000
43.8500 332.0000 1.0000
43.8600 296.0000 1.0000
43.8700 331.0000 1.0000
43.8800 353.0000 1.0000
43.8900 351.0000 1.0000
43.9000 321.0000 1.0000
43.9100 314.0000 1.0000
43.9200 331.0000 1.0000
43.9300 325.0000 1.0000
43.9400 319.0000 1.0000
43.9500 308.0000 1.0000
43.9600 327.0000 1.0000
43.9700 334.0000 1.0000
43.9800 350.0000 1.0000
43.9900 317.0000 1.0000
44.0000 301.0000 1.0000
44.0100 305.0000 1.0000
44.0200 328.0000 1.0000
44.0300 338.0000 1.0000
44.0400 320.0000 1.0000
44.0500 313.0000 1.0000
44.0600 316.0000 1.0000
44.0700 322.0000 1.0000
44.0800 315.0000 1.0000
44.0900 281.0000 1.0000
44.1000 322.0000 1.0000
44.1100 328.0000 1.0000
44.1200 297.0000 1.0000
44.1300 322.0000 1.0000
44.1400 310.0000 1.0000
44.1500 283.0000 1.0000
44.1600 317.0000 1.0000
44.1700 318.0000 1.0000
44.1800 330.0000 1.0000
44.1900 338.0000 1.0000
44.2000 306.0000 1.0000
44.2100 314.0000 1.0000
44.2200 332.0000 1.0000
44.2300 322.0000 1.0000
44.2400 312.0000 1.0000
44.2500 302.0000 1.0000
44.2600 320.0000 1.0000
44.2700 332.0000 1.0000
44.2800 321.0000 1.0000
44.2900 322.0000 1.0000
44.3000 340.0000 1.0000
44.3100 329.0000 1.0000
44.3200 324.0000 1.0000
44.3300 329.0000 1.0000
44.3400 323.0000 1.0000
44.3500 329.0000 1.0000
44.3600 319.0000 1.0000
44.3700 313.0000 1.0000
44.3800 325.0000 1.0000
44.3900 315.0000 1.0000
44.4000 346.0000 1.0000
44.4100 333.0000 1.0000
44.4200 318.0000 1.0000
44.4300 288.0000 1.0000
44.4400 304.0000 1.0000
44.4500 293.0000 1.0000
44.4600 318.0000 1.0000
44.4700 309.0000 1.0000
44.4800 308.0000 1.0000
44.4900 325.0000 1.0000
44.5000 276.0000 1.0000
44.5100 326.0000 1.0000
44.5200 329.0000 1.0000
44.5300 318.0000 1.0000
44.5400 323.0000 1.0000
44.5500 294.0000 1.0000
44.5600 341.0000 1.0000
44.5700 322.0000 1.0000
44.5800 350.0000 1.0000
44.5900 319.0000 1.0000
44.6000 285.0000 1.0000
44.6100 303.0000 1.0000
44.6200 313.0000 1.0000
44.6300 309.0000 1.0000
44.6400 323.0000 1.0000
44.6500 310.0000 1.0000
44.6600 347.0000 1.0000
44.6700 326.0000 1.0000
44.6800 293.0000 1.0000
44.6900 331.0000 1.0000
44.7000 309.0000 1.0000
44.7100 337.0000 1.0000
44.7200 294.0000 1.0000
44.7300 283.0000 1.0000
44.7400 306.0000 1.0000
44.7500 296.0000 1.0000
44.7600 299.0000 1.0000
44.7700 302.0000 1.0000
44.7800 306.0000 1.0000
44.7900 310.0000 1.0000
44.8000 312.0000 1.0000
44.8100 331.0000 1.0000
44.8200 304.0000 1.0000
44.8300 336.0000 1.0000
44.8400 309.0000 1.0000
44.8500 278.0000 1.0000
44.8600 296.0000 1.0000
44.8700 304.0000 1.0000
44.8800 343.0000 1.0000
44.8900 304.0000 1.0000
44.9000 311.0000 1.0000
44.9100 301.0000 1.0000
44.9200 300.0000 1.0000
44.9300 309.0000 1.0000
44.9400 290.0000 1.0000
44.9500 286.0000 1.0000
44.9600 296.0000 1.0000
44.9700 315.0000 1.0000
44.9800 333.0000 1.0000
44.9900 328.0000 1.0000
45.0000 313.0000 1.0000
45.0100 309.0000 1.0000
45.0200 285.0000 1.0000
45.0300 294.0000 1.0000
45.0400 324.0000 1.0000
45.0500 324.0000 1.0000
45.0600 291.0000 1.0000
45.0700 300.0000 1.0000
45.0800 307.0000 1.0000
45.0900 293.0000 1.0000
45.1000 315.0000 1.0000
45.1100 287.0000 1.0000
45.1200 299.0000 1.0000
45.1300 296.0000 1.0000
45.1400 308.0000 1.0000
45.1500 310.0000 1.0000
45.1600 336.0000 1.0000
45.1700 321.0000 1.0000
45.1800 292.0000 1.0000
45.1900 305.0000 1.0000
45.2000 291.0000 1.0000
45.2100 326.0000 1.0000
45.2200 344.0000 1.0000
45.2300 320.0000 1.0000
45.2400 285.0000 1.0000
45.2500 318.0000 1.0000
45.2600 324.0000 1.0000
45.2700 320.0000 1.0000
45.2800 325.0000 1.0000
45.2900 310.0000 1.0000
45.3000 270.0000 1.0000
45.3100 302.0000 1.0000
45.3200 276.0000 1.0000
45.3300 305.0000 1.0000
45.3400 291.0000 1.0000
45.3500 274.0000 1.0000
45.3600 296.0000 1.0000
45.3700 291.0000 1.0000
45.3800 319.0000 1.0000
45.3900 326.0000 1.0000
45.4000 302.0000 1.0000
45.4100 306.0000 1.0000
45.4200 287.0000 1.0000
45.4300 291.0000 1.0000
45.4400 274.0000 1.0000
45.4500 303.0000 1.0000
45.4600 326.0000 1.0000
45.4700 315.0000 1.0000
45.4800 296.0000 1.0000
45.4900 319.0000 1.0000
45.5000 321.0000 1.0000
45.5100 320.0000 1.0000
45.5200 312.0000 1.0000
45.5300 282.0000 1.0000
45.5400 260.0000 1.0000
45.5500 309.0000 1.0000
45.5600 326.0000 1.0000
45.5700 304.0000 1.0000
45.5800 300.0000 1.0000
45.5900 317.0000 1.0000
45.6000 330.0000 1.0000
45.6100 321.0000 1.0000
45.6200 320.0000 1.0000
45.6300 301.0000 1.0000
45.6400 304.0000 1.0000
45.6500 305.0000 1.0000
45.6600 314.0000 1.0000
45.6700 293.0000 1.0000
45.6800 306.0000 1.0000
45.6900 296.0000 1.0000
45.7000 301.0000 1.0000
45.7100 285.0000 1.0000
45.7200 322.0000 1.0000
45.7300 335.0000 1.0000
45.7400 334.0000 1.0000
45.7500 323.0000 1.0000
45.7600 298.0000 1.0000
45.7700 319.0000 1.0000
45.7800 299.0000 1.0000
45.7900 323.0000 1.0000
45.8000 282.0000 1.0000
45.8100 286.0000 1.0000
45.8200 307.0000 1.0000
45.8300 295.0000 1.0000
45.8400 289.0000 1.0000
45.8500 303.0000 1.0000
45.8600 331.0000 1.0000
45.8700 313.0000 1.0000
45.8800 298.0000 1.0000
45.8900 315.0000 1.0000
45.9000 327.0000 1.0000
45.9100 294.0000 1.0000
45.9200 335.0000 1.0000
45.9300 325.0000 1.0000
45.9400 300.0000 1.0000
45.9500 285.0000 1.0000
45.9600 332.0000 1.0000
45.9700 316.0000 1.0000
45.9800 331.0000 1.0000
45.9900 333.0000 1.0000
46.0000 326.0000 1.0000
46.0100 280.0000 1.0000
46.0200 320.0000 1.0000
46.0300 299.0000 1.0000
46.0400 317.0000 1.0000
46.0500 297.0000 1.0000
46.0600 278.0000 1.0000
46.0700 333.0000 1.0000
46.0800 284.0000 1.0000
46.0900 306.0000 1.0000
46.1000 319.0000 1.0000
46.1100 327.0000 1.0000
46.1200 297.0000 1.0000
46.1300 303.0000 1.0000
46.1400 291.0000 1.0000
46.1500 291.0000 1.0000
46.1600 291.0000 1.0000
46.1700 324.0000 1.0000
46.1800 298.0000 1.0000
46.1900 300.0000 1.0000
46.2000 294.0000 1.0000
46.2100 300.0000 1.0000
46.2200 312.0000 1.0000
46.2300 277.0000 1.0000
46.2400 294.0000 1.0000
46.2500 333.0000 1.0000
46.2600 310.0000 1.0000
46.2700 308.0000 1.0000
46.2800 313.0000 1.0000
46.2900 301.0000 1.0000
46.3000 271.0000 1.0000
46.3100 310.0000 1.0000
46.3200 307.0000 1.0000
46.3300 316.0000 1.0000
46.3400 313.0000 1.0000
46.3500 331.0000 1.0000
46.3600 310.0000 1.0000
46.3700 331.0000 1.0000
46.3800 305.0000 1.0000
46.3900 317.0000 1.0000
46.4000 311.0000 1.0000
46.4100 315.0000 1.0000
46.4200 344.0000 1.0000
46.4300 314.0000 1.0000
46.4400 296.0000 1.0000
46.4500 302.0000 1.0000
46.4600 331.0000 1.0000
46.4700 282.0000 1.0000
46.4800 306.0000 1.0000
46.4900 321.0000 1.0000
46.5000 344.0000 1.0000
46.5100 294.0000 1.0000
46.5200 286.0000 1.0000
46.5300 288.0000 1.0000
46.5400 323.0000 1.0000
46.5500 323.0000 1.0000
46.5600 319.0000 1.0000
46.5700 316.0000 1.0000
46.5800 277.0000 1.0000
46.5900 313.0000 1.0000
46.6000 319.0000 1.0000
46.6100 301.0000 1.0000
46.6200 332.0000 1.0000
46.6300 304.0000 1.0000
46.6400 302.0000 1.0000
46.6500 307.0000 1.0000
46.6600 267.0000 1.0000
46.6700 294.0000 1.0000
46.6800 331.0000 1.0000
46.6900 312.0000 1.0000
46.7000 315.0000 1.0000
46.7100 273.0000 1.0000
46.7200 276.0000 1.0000
46.7300 308.0000 1.0000
46.7400 324.0000 1.0000
46.7500 305.0000 1.0000
46.7600 286.0000 1.0000
46.7700 306.0000 1.0000
46.7800 301.0000 1.0000
46.7900 281.0000 1.0000
46.8000 285.0000 1.0000
46.8100 295.0000 1.0000
46.8200 300.0000 1.0000
46.8300 258.0000 1.0000
46.8400 264.0000 1.0000
46.8500 307.0000 1.0000
46.8600 307.0000 1.0000
46.8700 275.0000 1.0000
46.8800 298.0000 1.0000
46.8900 317.0000 1.0000
46.9000 298.0000 1.0000
46.9100 278.0000 1.0000
46.9200 301.0000 1.0000
46.9300 269.0000 1.0000
46.9400 297.0000 1.0000
46.9500 280.0000 1.0000
46.9600 289.0000 1.0000
46.9700 298.0000 1.0000
46.9800 281.0000 1.0000
46.9900 273.0000 1.0000
47.0000 294.0000 1.0000
47.0100 302.0000 1.0000
47.0200 289.0000 1.0000
47.0300 287.0000 1.0000
47.0400 278.0000 1.0000
47.0500 300.0000 1.0000
47.0600 286.0000 1.0000
47.0700 290.0000 1.0000
47.0800 278.0000 1.0000
47.0900 310.0000 1.0000
47.1000 306.0000 1.0000
47.1100 287.0000 1.0000
47.1200 289.0000 1.0000
47.1300 303.0000 1.0000
47.1400 299.0000 1.0000
47.1500 310.0000 1.0000
47.1600 325.0000 1.0000
47.1700 291.0000 1.0000
47.1800 283.0000 1.0000
47.1900 301.0000 1.0000
47.2000 290.0000 1.0000
47.2100 288.0000 1.0000
47.2200 304.0000 1.0000
47.2300 277.0000 1.0000
47.2400 335.0000 1.0000
47.2500 277.0000 1.0000
47.2600 271.0000 1.0000
47.2700 291.0000 1.0000
47.2800 291.0000 1.0000
47.2900 301.0000 1.0000
47.3000 281.0000 1.0000
47.3100 299.0000 1.0000
47.3200 297.0000 1.0000
47.3300 270.0000 1.0000
47.3400 305.0000 1.0000
47.3500 280.0000 1.0000
47.3600 316.0000 1.0000
47.3700 306.0000 1.0000
47.3800 308.0000 1.0000
47.3900 283.0000 1.0000
47.4000 267.0000 1.0000
47.4100 303.0000 1.0000
47.4200 322.0000 1.0000
47.4300 306.0000 1.0000
47.4400 303.0000 1.0000
47.4500 309.0000 1.0000
47.4600 281.0000 1.0000
47.4700 279.0000 1.0000
47.4800 283.0000 1.0000
47.4900 298.0000 1.0000
47.5000 288.0000 1.0000
47.5100 307.0000 1.0000
47.5200 281.0000 1.0000
47.5300 279.0000 1.0000
47.5400 280.0000 1.0000
47.5500 323.0000 1.0000
47.5600 276.0000 1.0000
47.5700 293.0000 1.0000
47.5800 279.0000 1.0000
47.5900 282.0000 1.0000
47.6000 296.0000 1.0000
47.6100 284.0000 1.0000
47.6200 274.0000 1.0000
47.6300 260.0000 1.0000
47.6400 273.0000 1.0000
47.6500 266.0000 1.0000
47.6600 301.0000 1.0000
47.6700 289.0000 1.0000
47.6800 274.0000 1.0000
47.6900 313.0000 1.0000
47.7000 298.0000 1.0000
47.7100 282.0000 1.0000
47.7200 287.0000 1.0000
47.7300 286.0000 1.0000
47.7400 290.0000 1.0000
47.7500 274.0000 1.0000
47.7600 285.0000 1.0000
47.7700 321.0000 1.0000
47.7800 295.0000 1.0000
47.7900 304.0000 1.0000
47.8000 294.0000 1.0000
47.8100 298.0000 1.0000
47.8200 298.0000 1.0000
47.8300 272.0000 1.0000
47.8400 266.0000 1.0000
47.8500 288.0000 1.0000
47.8600 277.0000 1.0000
47.8700 280.0000 1.0000
47.8800 291.0000 1.0000
47.8900 304.0000 1.0000
47.9000 301.0000 1.0000
47.9100 289.0000 1.0000
47.9200 290.0000 1.0000
47.9300 281.0000 1.0000
47.9400 290.0000 1.0000
47.9500 300.0000 1.0000
47.9600 295.0000 1.0000
47.9700 271.0000 1.0000
47.9800 280.0000 1.0000
47.9900 270.0000 1.0000
48.0000 261.0000 1.0000
48.0100 297.0000 1.0000
48.0200 295.0000 1.0000
48.0300 283.0000 1.0000
48.0400 288.0000 1.0000
48.0500 297.0000 1.0000
48.0600 293.0000 1.0000
48.0700 273.0000 1.0000
48.0800 274.0000 1.0000
48.0900 263.0000 1.0000
48.1000 287.0000 1.0000
48.1100 268.0000 1.0000
48.1200 268.0000 1.0000
48.1300 271.0000 1.0000
48.1400 296.0000 1.0000
48.1500 281.0000 1.0000
48.1600 278.0000 1.0000
48.1700 279.0000 1.0000
48.1800 298.0000 1.0000
48.1900 297.0000 1.0000
48.2000 294.0000 1.0000
48.2100 275.0000 1.0000
48.2200 274.0000 1.0000
48.2300 320.0000 1.0000
48.2400 284.0000 1.0000
48.2500 302.0000 1.0000
48.2600 284.0000 1.0000
48.2700 280.0000 1.0000
48.2800 285.0000 1.0000
48.2900 277.0000 1.0000
48.3000 280.0000 1.0000
48.3100 280.0000 1.0000
48.3200 279.0000 1.0000
48.3300 314.0000 1.0000
48.3400 283.0000 1.0000
48.3500 296.0000 1.0000
48.3600 292.0000 1.0000
48.3700 286.0000 1.0000
48.3800 295.0000 1.0000
48.3900 288.0000 1.0000
48.4000 270.0000 1.0000
48.4100 292.0000 1.0000
48.4200 286.0000 1.0000
48.4300 273.0000 1.0000
48.4400 281.0000 1.0000
48.4500 311.0000 1.0000
48.4600 301.0000 1.0000
48.4700 273.0000 1.0000
48.4800 283.0000 1.0000
48.4900 271.0000 1.0000
48.5000 271.0000 1.0000
48.5100 282.0000 1.0000
48.5200 285.0000 1.0000
48.5300 266.0000 1.0000
48.5400 317.0000 1.0000
48.5500 293.0000 1.0000
48.5600 310.0000 1.0000
48.5700 291.0000 1.0000
48.5800 302.0000 1.0000
48.5900 299.0000 1.0000
48.6000 277.0000 1.0000
48.6100 282.0000 1.0000
48.6200 279.0000 1.0000
48.6300 270.0000 1.0000
48.6400 303.0000 1.0000
48.6500 303.0000 1.0000
48.6600 312.0000 1.0000
48.6700 275.0000 1.0000
48.6800 278.0000 1.0000
48.6900 270.0000 1.0000
48.7000 302.0000 1.0000
48.7100 316.0000 1.0000
48.7200 280.0000 1.0000
48.7300 282.0000 1.0000
48.7400 270.0000 1.0000
48.7500 263.0000 1.0000
48.7600 281.0000 1.0000
48.7700 285.0000 1.0000
48.7800 277.0000 1.0000
48.7900 277.0000 1.0000
48.8000 285.0000 1.0000
48.8100 287.0000 1.0000
48.8200 300.0000 1.0000
48.8300 276.0000 1.0000
48.8400 275.0000 1.0000
48.8500 289.0000 1.0000
48.8600 300.0000 1.0000
48.8700 279.0000 1.0000
48.8800 264.0000 1.0000
48.8900 278.0000 1.0000
48.9000 277.0000 1.0000
48.9100 265.0000 1.0000
48.9200 258.0000 1.0000
48.9300 275.0000 1.0000
48.9400 303.0000 1.0000
48.9500 304.0000 1.0000
48.9600 291.0000 1.0000
48.9700 286.0000 1.0000
48.9800 284.0000 1.0000
48.9900 282.0000 1.0000
49.0000 266.0000 1.0000
49.0100 299.0000 1.0000
49.0200 296.0000 1.0000
49.0300 266.0000 1.0000
49.0400 265.0000 1.0000
49.0500 276.0000 1.0000
49.0600 286.0000 1.0000
49.0700 265.0000 1.0000
49.0800 295.0000 1.0000
49.0900 289.0000 1.0000
49.1000 267.0000 1.0000
49.1100 264.0000 1.0000
49.1200 286.0000 1.0000
49.1300 253.0000 1.0000
49.1400 272.0000 1.0000
49.1500 295.0000 1.0000
49.1600 300.0000 1.0000
49.1700 293.0000 1.0000
49.1800 295.0000 1.0000
49.1900 273.0000 1.0000
49.2000 276.0000 1.0000
49.2100 291.0000 1.0000
49.2200 291.0000 1.0000
49.2300 285.0000 1.0000
49.2400 278.0000 1.0000
49.2500 316.0000 1.0000
49.2600 285.0000 1.0000
49.2700 278.0000 1.0000
49.2800 318.0000 1.0000
49.2900 296.0000 1.0000
49.3000 311.0000 1.0000
49.3100 307.0000 1.0000
49.3200 286.0000 1.0000
49.3300 255.0000 1.0000
49.3400 299.0000 1.0000
49.3500 285.0000 1.0000
49.3600 305.0000 1.0000
49.3700 289.0000 1.0000
49.3800 288.0000 1.0000
49.3900 296.0000 1.0000
49.4000 297.0000 1.0000
49.4100 302.0000 1.0000
49.4200 334.0000 1.0000
49.4300 279.0000 1.0000
49.4400 267.0000 1.0000
49.4500 289.0000 1.0000
49.4600 290.0000 1.0000
49.4700 306.0000 1.0000
49.4800 286.0000 1.0000
49.4900 309.0000 1.0000
49.5000 308.0000 1.0000
49.5100 311.0000 1.0000
49.5200 307.0000 1.0000
49.5300 294.0000 1.0000
49.5400 309.0000 1.0000
49.5500 324.0000 1.0000
49.5600 319.0000 1.0000
49.5700 339.0000 1.0000
49.5800 310.0000 1.0000
49.5900 327.0000 1.0000
49.6000 329.0000 1.0000
49.6100 340.0000 1.0000
49.6200 345.0000 1.0000
49.6300 337.0000 1.0000
49.6400 348.0000 1.0000
49.6500 306.0000 1.0000
49.6600 310.0000 1.0000
49.6700 289.0000 1.0000
49.6800 334.0000 1.0000
49.6900 331.0000 1.0000
49.7000 336.0000 1.0000
49.7100 307.0000 1.0000
49.7200 293.0000 1.0000
49.7300 305.0000 1.0000
49.7400 298.0000 1.0000
49.7500 309.0000 1.0000
49.7600 333.0000 1.0000
49.7700 315.0000 1.0000
49.7800 307.0000 1.0000
49.7900 307.0000 1.0000
49.8000 296.0000 1.0000
49.8100 317.0000 1.0000
49.8200 313.0000 1.0000
49.8300 279.0000 1.0000
49.8400 314.0000 1.0000
49.8500 316.0000 1.0000
49.8600 317.0000 1.0000
49.8700 280.0000 1.0000
49.8800 290.0000 1.0000
49.8900 267.0000 1.0000
49.9000 286.0000 1.0000
49.9100 293.0000 1.0000
49.9200 299.0000 1.0000
49.9300 293.0000 1.0000
49.9400 284.0000 1.0000
49.9500 313.0000 1.0000
49.9600 293.0000 1.0000
49.9700 298.0000 1.0000
49.9800 286.0000 1.0000
49.9900 278.0000 1.0000
50.0000 296.0000 1.0000
50.0100 286.0000 1.0000
50.0200 298.0000 1.0000
50.0300 282.0000 1.0000
50.0400 299.0000 1.0000
50.0500 277.0000 1.0000
50.0600 267.0000 1.0000
50.0700 295.0000 1.0000
50.0800 279.0000 1.0000
50.0900 313.0000 1.0000
50.1000 298.0000 1.0000
50.1100 278.0000 1.0000
50.1200 308.0000 1.0000
50.1300 265.0000 1.0000
50.1400 292.0000 1.0000
50.1500 294.0000 1.0000
50.1600 285.0000 1.0000
50.1700 289.0000 1.0000
50.1800 247.0000 1.0000
50.1900 287.0000 1.0000
50.2000 288.0000 1.0000
50.2100 280.0000 1.0000
50.2200 304.0000 1.0000
50.2300 290.0000 1.0000
50.2400 300.0000 1.0000
50.2500 306.0000 1.0000
50.2600 278.0000 1.0000
50.2700 286.0000 1.0000
50.2800 278.0000 1.0000
50.2900 275.0000 1.0000
50.3000 287.0000 1.0000
50.3100 292.0000 1.0000
50.3200 310.0000 1.0000
50.3300 291.0000 1.0000
50.3400 283.0000 1.0000
50.3500 289.0000 1.0000
50.3600 309.0000 1.0000
50.3700 301.0000 1.0000
50.3800 295.0000 1.0000
50.3900 275.0000 1.0000
50.4000 271.0000 1.0000
50.4100 314.0000 1.0000
50.4200 287.0000 1.0000
50.4300 268.0000 1.0000
50.4400 294.0000 1.0000
50.4500 288.0000 1.0000
50.4600 290.0000 1.0000
50.4700 303.0000 1.0000
50.4800 269.0000 1.0000
50.4900 296.0000 1.0000
50.5000 272.0000 1.0000
50.5100 283.0000 1.0000
50.5200 271.0000 1.0000
50.5300 286.0000 1.0000
50.5400 285.0000 1.0000
50.5500 259.0000 1.0000
50.5600 292.0000 1.0000
50.5700 299.0000 1.0000
50.5800 285.0000 1.0000
50.5900 260.0000 1.0000
50.6000 280.0000 1.0000
50.6100 278.0000 1.0000
50.6200 289.0000 1.0000
50.6300 281.0000 1.0000
50.6400 280.0000 1.0000
50.6500 325.0000 1.0000
50.6600 293.0000 1.0000
50.6700 276.0000 1.0000
50.6800 269.0000 1.0000
50.6900 262.0000 1.0000
50.7000 270.0000 1.0000
50.7100 262.0000 1.0000
50.7200 295.0000 1.0000
50.7300 285.0000 1.0000
50.7400 285.0000 1.0000
50.7500 308.0000 1.0000
50.7600 304.0000 1.0000
50.7700 298.0000 1.0000
50.7800 272.0000 1.0000
50.7900 288.0000 1.0000
50.8000 290.0000 1.0000
50.8100 275.0000 1.0000
50.8200 309.0000 1.0000
50.8300 276.0000 1.0000
50.8400 263.0000 1.0000
50.8500 291.0000 1.0000
50.8600 311.0000 1.0000
50.8700 267.0000 1.0000
50.8800 274.0000 1.0000
50.8900 286.0000 1.0000
50.9000 286.0000 1.0000
50.9100 299.0000 1.0000
50.9200 274.0000 1.0000
50.9300 287.0000 1.0000
50.9400 300.0000 1.0000
50.9500 315.0000 1.0000
50.9600 307.0000 1.0000
50.9700 295.0000 1.0000
50.9800 259.0000 1.0000
50.9900 311.0000 1.0000
51.0000 314.0000 1.0000
51.0100 311.0000 1.0000
51.0200 314.0000 1.0000
51.0300 296.0000 1.0000
51.0400 287.0000 1.0000
51.0500 295.0000 1.0000
51.0600 266.0000 1.0000
51.0700 268.0000 1.0000
51.0800 284.0000 1.0000
51.0900 266.0000 1.0000
51.1000 296.0000 1.0000
51.1100 305.0000 1.0000
51.1200 295.0000 1.0000
51.1300 296.0000 1.0000
51.1400 289.0000 1.0000
51.1500 289.0000 1.0000
51.1600 300.0000 1.0000
51.1700 316.0000 1.0000
51.1800 323.0000 1.0000
51.1900 284.0000 1.0000
51.2000 323.0000 1.0000
51.2100 301.0000 1.0000
51.2200 342.0000 1.0000
51.2300 338.0000 1.0000
51.2400 334.0000 1.0000
51.2500 309.0000 1.0000
51.2600 321.0000 1.0000
51.2700 317.0000 1.0000
51.2800 323.0000 1.0000
51.2900 335.0000 1.0000
51.3000 328.0000 1.0000
51.3100 316.0000 1.0000
51.3200 341.0000 1.0000
51.3300 329.0000 1.0000
51.3400 368.0000 1.0000
51.3500 342.0000 1.0000
51.3600 368.0000 1.0000
51.3700 402.0000 1.0000
51.3800 374.0000 1.0000
51.3900 370.0000 1.0000
51.4000 389.0000 1.0000
51.4100 418.0000 1.0000
51.4200 403.0000 1.0000
51.4300 474.0000 1.0000
51.4400 442.0000 1.0000
51.4500 454.0000 1.0000
51.4600 511.0000 1.0000
51.4700 478.0000 1.0000
51.4800 551.0000 1.0000
51.4900 566.0000 1.0000
51.5000 586.0000 1.0000
51.5100 670.0000 1.0000
51.5200 693.0000 1.0000
51.5300 753.0000 1.0000
51.5400 794.0000 1.0000
51.5500 795.0000 1.0000
51.5600 925.0000 1.0000
51.5700 973.0000 1.0000
51.5800 1014.0000 1.0000
51.5900 1141.0000 1.0000
51.6000 1175.0000 1.0000
51.6100 1263.0000 1.0000
51.6200 1385.0000 1.0000
51.6300 1502.0000 1.0000
51.6400 1558.0000 1.0000
51.6500 1620.0000 1.0000
51.6600 1753.0000 1.0000
51.6700 1816.0000 1.0000
51.6800 1814.0000 1.0000
51.6900 1887.0000 1.0000
51.7000 1911.0000 1.0000
51.7100 1932.0000 1.0000
51.7200 1897.0000 1.0000
51.7300 1870.0000 1.0000
51.7400 1830.0000 1.0000
51.7500 1789.0000 1.0000
51.7600 1700.0000 1.0000
51.7700 1702.0000 1.0000
51.7800 1602.0000 1.0000
51.7900 1515.0000 1.0000
51.8000 1479.0000 1.0000
51.8100 1440.0000 1.0000
51.8200 1366.0000 1.0000
51.8300 1299.0000 1.0000
51.8400 1307.0000 1.0000
51.8500 1266.0000 1.0000
51.8600 1218.0000 1.0000
51.8700 1154.0000 1.0000
51.8800 1106.0000 1.0000
51.8900 1009.0000 1.0000
51.9000 904.0000 1.0000
51.9100 848.0000 1.0000
51.9200 785.0000 1.0000
51.9300 758.0000 1.0000
51.9400 700.0000 1.0000
51.9500 659.0000 1.0000
51.9600 653.0000 1.0000
51.9700 587.0000 1.0000
51.9800 576.0000 1.0000
51.9900 615.0000 1.0000
52.0000 540.0000 1.0000
52.0100 489.0000 1.0000
52.0200 516.0000 1.0000
52.0300 494.0000 1.0000
52.0400 433.0000 1.0000
52.0500 438.0000 1.0000
52.0600 417.0000 1.0000
52.0700 398.0000 1.0000
52.0800 438.0000 1.0000
52.0900 377.0000 1.0000
52.1000 378.0000 1.0000
52.1100 352.0000 1.0000
52.1200 362.0000 1.0000
52.1300 335.0000 1.0000
52.1400 351.0000 1.0000
52.1500 362.0000 1.0000
52.1600 337.0000 1.0000
52.1700 368.0000 1.0000
52.1800 360.0000 1.0000
52.1900 358.0000 1.0000
52.2000 308.0000 1.0000
52.2100 340.0000 1.0000
52.2200 340.0000 1.0000
52.2300 368.0000 1.0000
52.2400 323.0000 1.0000
52.2500 317.0000 1.0000
52.2600 320.0000 1.0000
52.2700 315.0000 1.0000
52.2800 324.0000 1.0000
52.2900 307.0000 1.0000
52.3000 311.0000 1.0000
52.3100 324.0000 1.0000
52.3200 330.0000 1.0000
52.3300 321.0000 1.0000
52.3400 320.0000 1.0000
52.3500 333.0000 1.0000
52.3600 325.0000 1.0000
52.3700 304.0000 1.0000
52.3800 271.0000 1.0000
52.3900 311.0000 1.0000
52.4000 321.0000 1.0000
52.4100 311.0000 1.0000
52.4200 300.0000 1.0000
52.4300 279.0000 1.0000
52.4400 317.0000 1.0000
52.4500 295.0000 1.0000
52.4600 316.0000 1.0000
52.4700 318.0000 1.0000
52.4800 294.0000 1.0000
52.4900 303.0000 1.0000
52.5000 286.0000 1.0000
52.5100 298.0000 1.0000
52.5200 294.0000 1.0000
52.5300 286.0000 1.0000
52.5400 304.0000 1.0000
52.5500 315.0000 1.0000
52.5600 297.0000 1.0000
52.5700 286.0000 1.0000
52.5800 262.0000 1.0000
52.5900 277.0000 1.0000
52.6000 272.0000 1.0000
52.6100 290.0000 1.0000
52.6200 307.0000 1.0000
52.6300 277.0000 1.0000
52.6400 273.0000 1.0000
52.6500 296.0000 1.0000
52.6600 274.0000 1.0000
52.6700 280.0000 1.0000
52.6800 282.0000 1.0000
52.6900 282.0000 1.0000
52.7000 285.0000 1.0000
52.7100 296.0000 1.0000
52.7200 290.0000 1.0000
52.7300 272.0000 1.0000
52.7400 287.0000 1.0000
52.7500 304.0000 1.0000
52.7600 293.0000 1.0000
52.7700 286.0000 1.0000
52.7800 263.0000 1.0000
52.7900 280.0000 1.0000
52.8000 250.0000 1.0000
52.8100 272.0000 1.0000
52.8200 293.0000 1.0000
52.8300 271.0000 1.0000
52.8400 257.0000 1.0000
52.8500 255.0000 1.0000
52.8600 285.0000 1.0000
52.8700 293.0000 1.0000
52.8800 282.0000 1.0000
52.8900 282.0000 1.0000
52.9000 279.0000 1.0000
52.9100 289.0000 1.0000
52.9200 290.0000 1.0000
52.9300 295.0000 1.0000
52.9400 263.0000 1.0000
52.9500 306.0000 1.0000
52.9600 271.0000 1.0000
52.9700 258.0000 1.0000
52.9800 271.0000 1.0000
52.9900 267.0000 1.0000
53.0000 273.0000 1.0000
53.0100 261.0000 1.0000
53.0200 271.0000 1.0000
53.0300 287.0000 1.0000
53.0400 299.0000 1.0000
53.0500 291.0000 1.0000
53.0600 279.0000 1.0000
53.0700 284.0000 1.0000
53.0800 259.0000 1.0000
53.0900 284.0000 1.0000
53.1000 252.0000 1.0000
53.1100 266.0000 1.0000
53.1200 297.0000 1.0000
53.1300 277.0000 1.0000
53.1400 285.0000 1.0000
53.1500 286.0000 1.0000
53.1600 284.0000 1.0000
53.1700 260.0000 1.0000
53.1800 265.0000 1.0000
53.1900 271.0000 1.0000
53.2000 292.0000 1.0000
53.2100 292.0000 1.0000
53.2200 258.0000 1.0000
53.2300 294.0000 1.0000
53.2400 275.0000 1.0000
53.2500 266.0000 1.0000
53.2600 280.0000 1.0000
53.2700 275.0000 1.0000
53.2800 290.0000 1.0000
53.2900 268.0000 1.0000
53.3000 266.0000 1.0000
53.3100 260.0000 1.0000
53.3200 308.0000 1.0000
53.3300 266.0000 1.0000
53.3400 299.0000 1.0000
53.3500 285.0000 1.0000
53.3600 273.0000 1.0000
53.3700 257.0000 1.0000
53.3800 290.0000 1.0000
53.3900 299.0000 1.0000
53.4000 275.0000 1.0000
53.4100 272.0000 1.0000
53.4200 282.0000 1.0000
53.4300 250.0000 1.0000
53.4400 260.0000 1.0000
53.4500 272.0000 1.0000
53.4600 269.0000 1.0000
53.4700 296.0000 1.0000
53.4800 262.0000 1.0000
53.4900 279.0000 1.0000
53.5000 272.0000 1.0000
53.5100 247.0000 1.0000
53.5200 267.0000 1.0000
53.5300 254.0000 1.0000
53.5400 268.0000 1.0000
53.5500 293.0000 1.0000
53.5600 288.0000 1.0000
53.5700 279.0000 1.0000
53.5800 236.0000 1.0000
53.5900 257.0000 1.0000
53.6000 289.0000 1.0000
53.6100 261.0000 1.0000
53.6200 271.0000 1.0000
53.6300 264.0000 1.0000
53.6400 270.0000 1.0000
53.6500 272.0000 1.0000
53.6600 272.0000 1.0000
53.6700 271.0000 1.0000
53.6800 267.0000 1.0000
53.6900 257.0000 1.0000
53.7000 275.0000 1.0000
53.7100 263.0000 1.0000
53.7200 276.0000 1.0000
53.7300 287.0000 1.0000
53.7400 261.0000 1.0000
53.7500 296.0000 1.0000
53.7600 297.0000 1.0000
53.7700 276.0000 1.0000
53.7800 277.0000 1.0000
53.7900 298.0000 1.0000
53.8000 312.0000 1.0000
53.8100 293.0000 1.0000
53.8200 271.0000 1.0000
53.8300 293.0000 1.0000
53.8400 277.0000 1.0000
53.8500 271.0000 1.0000
53.8600 290.0000 1.0000
53.8700 270.0000 1.0000
53.8800 256.0000 1.0000
53.8900 257.0000 1.0000
53.9000 288.0000 1.0000
53.9100 278.0000 1.0000
53.9200 278.0000 1.0000
53.9300 266.0000 1.0000
53.9400 279.0000 1.0000
53.9500 268.0000 1.0000
53.9600 281.0000 1.0000
53.9700 278.0000 1.0000
53.9800 306.0000 1.0000
53.9900 270.0000 1.0000
54.0000 285.0000 1.0000
54.0100 289.0000 1.0000
54.0200 267.0000 1.0000
54.0300 283.0000 1.0000
54.0400 310.0000 1.0000
54.0500 279.0000 1.0000
54.0600 275.0000 1.0000
54.0700 292.0000 1.0000
54.0800 267.0000 1.0000
54.0900 292.0000 1.0000
54.1000 284.0000 1.0000
54.1100 294.0000 1.0000
54.1200 307.0000 1.0000
54.1300 305.0000 1.0000
54.1400 295.0000 1.0000
54.1500 328.0000 1.0000
54.1600 343.0000 1.0000
54.1700 316.0000 1.0000
54.1800 321.0000 1.0000
54.1900 316.0000 1.0000
54.2000 315.0000 1.0000
54.2100 325.0000 1.0000
54.2200 353.0000 1.0000
54.2300 339.0000 1.0000
54.2400 307.0000 1.0000
54.2500 297.0000 1.0000
54.2600 304.0000 1.0000
54.2700 314.0000 1.0000
54.2800 296.0000 1.0000
54.2900 326.0000 1.0000
54.3000 319.0000 1.0000
54.3100 332.0000 1.0000
54.3200 304.0000 1.0000
54.3300 311.0000 1.0000
54.3400 310.0000 1.0000
54.3500 311.0000 1.0000
54.3600 289.0000 1.0000
54.3700 284.0000 1.0000
54.3800 311.0000 1.0000
54.3900 339.0000 1.0000
54.4000 324.0000 1.0000
54.4100 308.0000 1.0000
54.4200 304.0000 1.0000
54.4300 332.0000 1.0000
54.4400 304.0000 1.0000
54.4500 303.0000 1.0000
54.4600 337.0000 1.0000
54.4700 305.0000 1.0000
54.4800 333.0000 1.0000
54.4900 325.0000 1.0000
54.5000 312.0000 1.0000
54.5100 356.0000 1.0000
54.5200 325.0000 1.0000
54.5300 314.0000 1.0000
54.5400 313.0000 1.0000
54.5500 320.0000 1.0000
54.5600 320.0000 1.0000
54.5700 337.0000 1.0000
54.5800 341.0000 1.0000
54.5900 324.0000 1.0000
54.6000 349.0000 1.0000
54.6100 387.0000 1.0000
54.6200 355.0000 1.0000
54.6300 388.0000 1.0000
54.6400 386.0000 1.0000
54.6500 394.0000 1.0000
54.6600 423.0000 1.0000
54.6700 434.0000 1.0000
54.6800 387.0000 1.0000
54.6900 443.0000 1.0000
54.7000 431.0000 1.0000
54.7100 402.0000 1.0000
54.7200 415.0000 1.0000
54.7300 406.0000 1.0000
54.7400 402.0000 1.0000
54.7500 429.0000 1.0000
54.7600 376.0000 1.0000
54.7700 440.0000 1.0000
54.7800 418.0000 1.0000
54.7900 394.0000 1.0000
54.8000 407.0000 1.0000
54.8100 387.0000 1.0000
54.8200 383.0000 1.0000
54.8300 407.0000 1.0000
54.8400 392.0000 1.0000
54.8500 367.0000 1.0000
54.8600 377.0000 1.0000
54.8700 362.0000 1.0000
54.8800 387.0000 1.0000
54.8900 347.0000 1.0000
54.9000 334.0000 1.0000
54.9100 357.0000 1.0000
54.9200 339.0000 1.0000
54.9300 359.0000 1.0000
54.9400 344.0000 1.0000
54.9500 351.0000 1.0000
54.9600 341.0000 1.0000
54.9700 309.0000 1.0000
54.9800 349.0000 1.0000
54.9900 323.0000 1.0000
55.0000 324.0000 1.0000
55.0100 302.0000 1.0000
55.0200 301.0000 1.0000
55.0300 327.0000 1.0000
55.0400 304.0000 1.0000
55.0500 322.0000 1.0000
55.0600 290.0000 1.0000
55.0700 310.0000 1.0000
55.0800 296.0000 1.0000
55.0900 294.0000 1.0000
55.1000 289.0000 1.0000
55.1100 305.0000 1.0000
55.1200 288.0000 1.0000
55.1300 274.0000 1.0000
55.1400 264.0000 1.0000
55.1500 278.0000 1.0000
55.1600 285.0000 1.0000
55.1700 253.0000 1.0000
55.1800 275.0000 1.0000
55.1900 280.0000 1.0000
55.2000 299.0000 1.0000
55.2100 281.0000 1.0000
55.2200 273.0000 1.0000
55.2300 267.0000 1.0000
55.2400 297.0000 1.0000
55.2500 269.0000 1.0000
55.2600 257.0000 1.0000
55.2700 261.0000 1.0000
55.2800 274.0000 1.0000
55.2900 284.0000 1.0000
55.3000 260.0000 1.0000
55.3100 284.0000 1.0000
55.3200 276.0000 1.0000
55.3300 293.0000 1.0000
55.3400 265.0000 1.0000
55.3500 277.0000 1.0000
55.3600 268.0000 1.0000
55.3700 298.0000 1.0000
55.3800 264.0000 1.0000
55.3900 269.0000 1.0000
55.4000 270.0000 1.0000
55.4100 254.0000 1.0000
55.4200 246.0000 1.0000
55.4300 275.0000 1.0000
55.4400 264.0000 1.0000
55.4500 288.0000 1.0000
55.4600 277.0000 1.0000
55.4700 271.0000 1.0000
55.4800 293.0000 1.0000
55.4900 284.0000 1.0000
55.5000 254.0000 1.0000
55.5100 276.0000 1.0000
55.5200 251.0000 1.0000
55.5300 252.0000 1.0000
55.5400 264.0000 1.0000
55.5500 284.0000 1.0000
55.5600 281.0000 1.0000
55.5700 292.0000 1.0000
55.5800 291.0000 1.0000
55.5900 260.0000 1.0000
55.6000 285.0000 1.0000
55.6100 280.0000 1.0000
55.6200 268.0000 1.0000
55.6300 267.0000 1.0000
55.6400 273.0000 1.0000
55.6500 286.0000 1.0000
55.6600 264.0000 1.0000
55.6700 270.0000 1.0000
55.6800 262.0000 1.0000
55.6900 256.0000 1.0000
55.7000 267.0000 1.0000
55.7100 275.0000 1.0000
55.7200 279.0000 1.0000
55.7300 266.0000 1.0000
55.7400 252.0000 1.0000
55.7500 255.0000 1.0000
55.7600 247.0000 1.0000
55.7700 268.0000 1.0000
55.7800 266.0000 1.0000
55.7900 232.0000 1.0000
55.8000 254.0000 1.0000
55.8100 276.0000 1.0000
55.8200 262.0000 1.0000
55.8300 266.0000 1.0000
55.8400 265.0000 1.0000
55.8500 255.0000 1.0000
55.8600 259.0000 1.0000
55.8700 284.0000 1.0000
55.8800 280.0000 1.0000
55.8900 272.0000 1.0000
55.9000 232.0000 1.0000
55.9100 242.0000 1.0000
55.9200 225.0000 1.0000
55.9300 283.0000 1.0000
55.9400 263.0000 1.0000
55.9500 273.0000 1.0000
55.9600 252.0000 1.0000
55.9700 289.0000 1.0000
55.9800 255.0000 1.0000
55.9900 253.0000 1.0000
56.0000 252.0000 1.0000
56.0100 252.0000 1.0000
56.0200 238.0000 1.0000
56.0300 264.0000 1.0000
56.0400 236.0000 1.0000
56.0500 267.0000 1.0000
56.0600 267.0000 1.0000
56.0700 249.0000 1.0000
56.0800 229.0000 1.0000
56.0900 240.0000 1.0000
56.1000 260.0000 1.0000
56.1100 259.0000 1.0000
56.1200 253.0000 1.0000
56.1300 260.0000 1.0000
56.1400 299.0000 1.0000
56.1500 277.0000 1.0000
56.1600 245.0000 1.0000
56.1700 254.0000 1.0000
56.1800 280.0000 1.0000
56.1900 260.0000 1.0000
56.2000 261.0000 1.0000
56.2100 276.0000 1.0000
56.2200 267.0000 1.0000
56.2300 230.0000 1.0000
56.2400 270.0000 1.0000
56.2500 272.0000 1.0000
56.2600 256.0000 1.0000
56.2700 260.0000 1.0000
56.2800 285.0000 1.0000
56.2900 245.0000 1.0000
56.3000 263.0000 1.0000
56.3100 287.0000 1.0000
56.3200 250.0000 1.0000
56.3300 268.0000 1.0000
56.3400 286.0000 1.0000
56.3500 289.0000 1.0000
56.3600 274.0000 1.0000
56.3700 255.0000 1.0000
56.3800 258.0000 1.0000
56.3900 273.0000 1.0000
56.4000 271.0000 1.0000
56.4100 258.0000 1.0000
56.4200 287.0000 1.0000
56.4300 266.0000 1.0000
56.4400 233.0000 1.0000
56.4500 241.0000 1.0000
56.4600 243.0000 1.0000
56.4700 255.0000 1.0000
56.4800 272.0000 1.0000
56.4900 261.0000 1.0000
56.5000 255.0000 1.0000
56.5100 262.0000 1.0000
56.5200 265.0000 1.0000
56.5300 262.0000 1.0000
56.5400 264.0000 1.0000
56.5500 274.0000 1.0000
56.5600 248.0000 1.0000
56.5700 249.0000 1.0000
56.5800 281.0000 1.0000
56.5900 250.0000 1.0000
56.6000 253.0000 1.0000
56.6100 242.0000 1.0000
56.6200 279.0000 1.0000
56.6300 265.0000 1.0000
56.6400 247.0000 1.0000
56.6500 254.0000 1.0000
56.6600 264.0000 1.0000
56.6700 268.0000 1.0000
56.6800 276.0000 1.0000
56.6900 255.0000 1.0000
56.7000 248.0000 1.0000
56.7100 260.0000 1.0000
56.7200 256.0000 1.0000
56.7300 226.0000 1.0000
56.7400 265.0000 1.0000
56.7500 268.0000 1.0000
56.7600 242.0000 1.0000
56.7700 249.0000 1.0000
56.7800 256.0000 1.0000
56.7900 251.0000 1.0000
56.8000 278.0000 1.0000
56.8100 247.0000 1.0000
56.8200 265.0000 1.0000
56.8300 258.0000 1.0000
56.8400 258.0000 1.0000
56.8500 243.0000 1.0000
56.8600 235.0000 1.0000
56.8700 254.0000 1.0000
56.8800 286.0000 1.0000
56.8900 258.0000 1.0000
56.9000 255.0000 1.0000
56.9100 258.0000 1.0000
56.9200 257.0000 1.0000
56.9300 260.0000 1.0000
56.9400 254.0000 1.0000
56.9500 255.0000 1.0000
56.9600 259.0000 1.0000
56.9700 242.0000 1.0000
56.9800 265.0000 1.0000
56.9900 240.0000 1.0000
57.0000 273.0000 1.0000
57.0100 248.0000 1.0000
57.0200 261.0000 1.0000
57.0300 265.0000 1.0000
57.0400 241.0000 1.0000
57.0500 278.0000 1.0000
57.0600 296.0000 1.0000
57.0700 265.0000 1.0000
57.0800 260.0000 1.0000
57.0900 262.0000 1.0000
57.1000 266.0000 1.0000
57.1100 259.0000 1.0000
57.1200 267.0000 1.0000
57.1300 248.0000 1.0000
57.1400 258.0000 1.0000
57.1500 269.0000 1.0000
57.1600 258.0000 1.0000
57.1700 258.0000 1.0000
57.1800 250.0000 1.0000
57.1900 273.0000 1.0000
57.2000 264.0000 1.0000
57.2100 248.0000 1.0000
57.2200 250.0000 1.0000
57.2300 253.0000 1.0000
57.2400 265.0000 1.0000
57.2500 238.0000 1.0000
57.2600 236.0000 1.0000
57.2700 255.0000 1.0000
57.2800 238.0000 1.0000
57.2900 276.0000 1.0000
57.3000 269.0000 1.0000
57.3100 273.0000 1.0000
57.3200 251.0000 1.0000
57.3300 271.0000 1.0000
57.3400 282.0000 1.0000
57.3500 231.0000 1.0000
57.3600 252.0000 1.0000
57.3700 293.0000 1.0000
57.3800 273.0000 1.0000
57.3900 265.0000 1.0000
57.4000 298.0000 1.0000
57.4100 259.0000 1.0000
57.4200 252.0000 1.0000
57.4300 273.0000 1.0000
57.4400 270.0000 1.0000
57.4500 254.0000 1.0000
57.4600 267.0000 1.0000
57.4700 286.0000 1.0000
57.4800 266.0000 1.0000
57.4900 267.0000 1.0000
57.5000 253.0000 1.0000
57.5100 274.0000 1.0000
57.5200 267.0000 1.0000
57.5300 262.0000 1.0000
57.5400 269.0000 1.0000
57.5500 280.0000 1.0000
57.5600 284.0000 1.0000
57.5700 250.0000 1.0000
57.5800 284.0000 1.0000
57.5900 269.0000 1.0000
57.6000 266.0000 1.0000
57.6100 267.0000 1.0000
57.6200 268.0000 1.0000
57.6300 263.0000 1.0000
57.6400 252.0000 1.0000
57.6500 265.0000 1.0000
57.6600 265.0000 1.0000
57.6700 251.0000 1.0000
57.6800 256.0000 1.0000
57.6900 272.0000 1.0000
57.7000 304.0000 1.0000
57.7100 252.0000 1.0000
57.7200 254.0000 1.0000
57.7300 262.0000 1.0000
57.7400 280.0000 1.0000
57.7500 276.0000 1.0000
57.7600 263.0000 1.0000
57.7700 260.0000 1.0000
57.7800 255.0000 1.0000
57.7900 260.0000 1.0000
57.8000 268.0000 1.0000
57.8100 288.0000 1.0000
57.8200 289.0000 1.0000
57.8300 280.0000 1.0000
57.8400 258.0000 1.0000
57.8500 266.0000 1.0000
57.8600 241.0000 1.0000
57.8700 243.0000 1.0000
57.8800 274.0000 1.0000
57.8900 276.0000 1.0000
57.9000 247.0000 1.0000
57.9100 273.0000 1.0000
57.9200 265.0000 1.0000
57.9300 241.0000 1.0000
57.9400 241.0000 1.0000
57.9500 257.0000 1.0000
57.9600 264.0000 1.0000
57.9700 281.0000 1.0000
57.9800 261.0000 1.0000
57.9900 250.0000 1.0000
58.0000 229.0000 1.0000
58.0100 256.0000 1.0000
58.0200 264.0000 1.0000
58.0300 260.0000 1.0000
58.0400 240.0000 1.0000
58.0500 266.0000 1.0000
58.0600 256.0000 1.0000
58.0700 232.0000 1.0000
58.0800 251.0000 1.0000
58.0900 257.0000 1.0000
58.1000 282.0000 1.0000
58.1100 261.0000 1.0000
58.1200 252.0000 1.0000
58.1300 254.0000 1.0000
58.1400 271.0000 1.0000
58.1500 244.0000 1.0000
58.1600 259.0000 1.0000
58.1700 279.0000 1.0000
58.1800 246.0000 1.0000
58.1900 258.0000 1.0000
58.2000 276.0000 1.0000
58.2100 242.0000 1.0000
58.2200 256.0000 1.0000
58.2300 240.0000 1.0000
58.2400 248.0000 1.0000
58.2500 233.0000 1.0000
58.2600 263.0000 1.0000
58.2700 281.0000 1.0000
58.2800 274.0000 1.0000
58.2900 246.0000 1.0000
58.3000 263.0000 1.0000
58.3100 254.0000 1.0000
58.3200 250.0000 1.0000
58.3300 249.0000 1.0000
58.3400 253.0000 1.0000
58.3500 244.0000 1.0000
58.3600 269.0000 1.0000
58.3700 250.0000 1.0000
58.3800 231.0000 1.0000
58.3900 236.0000 1.0000
58.4000 249.0000 1.0000
58.4100 242.0000 1.0000
58.4200 253.0000 1.0000
58.4300 276.0000 1.0000
58.4400 257.0000 1.0000
58.4500 294.0000 1.0000
58.4600 257.0000 1.0000
58.4700 272.0000 1.0000
58.4800 265.0000 1.0000
58.4900 253.0000 1.0000
58.5000 262.0000 1.0000
58.5100 264.0000 1.0000
58.5200 276.0000 1.0000
58.5300 288.0000 1.0000
58.5400 271.0000 1.0000
58.5500 271.0000 1.0000
58.5600 262.0000 1.0000
58.5700 233.0000 1.0000
58.5800 259.0000 1.0000
58.5900 255.0000 1.0000
58.6000 233.0000 1.0000
58.6100 237.0000 1.0000
58.6200 259.0000 1.0000
58.6300 231.0000 1.0000
58.6400 221.0000 1.0000
58.6500 250.0000 1.0000
58.6600 259.0000 1.0000
58.6700 259.0000 1.0000
58.6800 265.0000 1.0000
58.6900 263.0000 1.0000
58.7000 244.0000 1.0000
58.7100 260.0000 1.0000
58.7200 277.0000 1.0000
58.7300 297.0000 1.0000
58.7400 266.0000 1.0000
58.7500 266.0000 1.0000
58.7600 266.0000 1.0000
58.7700 248.0000 1.0000
58.7800 239.0000 1.0000
58.7900 281.0000 1.0000
58.8000 274.0000 1.0000
58.8100 261.0000 1.0000
58.8200 281.0000 1.0000
58.8300 232.0000 1.0000
58.8400 248.0000 1.0000
58.8500 268.0000 1.0000
58.8600 260.0000 1.0000
58.8700 261.0000 1.0000
58.8800 249.0000 1.0000
58.8900 261.0000 1.0000
58.9000 261.0000 1.0000
58.9100 243.0000 1.0000
58.9200 273.0000 1.0000
58.9300 257.0000 1.0000
58.9400 259.0000 1.0000
58.9500 232.0000 1.0000
58.9600 273.0000 1.0000
58.9700 245.0000 1.0000
58.9800 252.0000 1.0000
58.9900 244.0000 1.0000
59.0000 248.0000 1.0000
59.0100 260.0000 1.0000
59.0200 259.0000 1.0000
59.0300 248.0000 1.0000
59.0400 254.0000 1.0000
59.0500 250.0000 1.0000
59.0600 234.0000 1.0000
59.0700 260.0000 1.0000
59.0800 268.0000 1.0000
59.0900 267.0000 1.0000
59.1000 245.0000 1.0000
59.1100 251.0000 1.0000
59.1200 254.0000 1.0000
59.1300 227.0000 1.0000
59.1400 255.0000 1.0000
59.1500 253.0000 1.0000
59.1600 240.0000 1.0000
59.1700 244.0000 1.0000
59.1800 251.0000 1.0000
59.1900 252.0000 1.0000
59.2000 245.0000 1.0000
59.2100 263.0000 1.0000
59.2200 253.0000 1.0000
59.2300 246.0000 1.0000
59.2400 222.0000 1.0000
59.2500 254.0000 1.0000
59.2600 297.0000 1.0000
59.2700 254.0000 1.0000
59.2800 241.0000 1.0000
59.2900 232.0000 1.0000
59.3000 241.0000 1.0000
59.3100 267.0000 1.0000
59.3200 238.0000 1.0000
59.3300 256.0000 1.0000
59.3400 239.0000 1.0000
59.3500 250.0000 1.0000
59.3600 263.0000 1.0000
59.3700 264.0000 1.0000
59.3800 268.0000 1.0000
59.3900 266.0000 1.0000
59.4000 239.0000 1.0000
59.4100 251.0000 1.0000
59.4200 252.0000 1.0000
59.4300 271.0000 1.0000
59.4400 281.0000 1.0000
59.4500 263.0000 1.0000
59.4600 255.0000 1.0000
59.4700 283.0000 1.0000
59.4800 263.0000 1.0000
59.4900 246.0000 1.0000
59.5000 249.0000 1.0000
59.5100 261.0000 1.0000
59.5200 257.0000 1.0000
59.5300 233.0000 1.0000
59.5400 265.0000 1.0000
59.5500 268.0000 1.0000
59.5600 269.0000 1.0000
59.5700 256.0000 1.0000
59.5800 261.0000 1.0000
59.5900 261.0000 1.0000
59.6000 289.0000 1.0000
59.6100 286.0000 1.0000
59.6200 251.0000 1.0000
59.6300 267.0000 1.0000
59.6400 271.0000 1.0000
59.6500 236.0000 1.0000
59.6600 253.0000 1.0000
59.6700 248.0000 1.0000
59.6800 256.0000 1.0000
59.6900 258.0000 1.0000
59.7000 268.0000 1.0000
59.7100 243.0000 1.0000
59.7200 243.0000 1.0000
59.7300 252.0000 1.0000
59.7400 284.0000 1.0000
59.7500 253.0000 1.0000
59.7600 271.0000 1.0000
59.7700 270.0000 1.0000
59.7800 284.0000 1.0000
59.7900 275.0000 1.0000
59.8000 233.0000 1.0000
59.8100 230.0000 1.0000
59.8200 265.0000 1.0000
59.8300 277.0000 1.0000
59.8400 258.0000 1.0000
59.8500 256.0000 1.0000
59.8600 285.0000 1.0000
59.8700 254.0000 1.0000
59.8800 253.0000 1.0000
59.8900 245.0000 1.0000
59.9000 251.0000 1.0000
59.9100 256.0000 1.0000
59.9200 235.0000 1.0000
59.9300 260.0000 1.0000
59.9400 270.0000 1.0000
59.9500 258.0000 1.0000
59.9600 254.0000 1.0000
59.9700 265.0000 1.0000
59.9800 257.0000 1.0000
59.9900 252.0000 1.0000
60.0000 245.0000 1.0000
60.0100 240.0000 1.0000
60.0200 258.0000 1.0000
60.0300 251.0000 1.0000
60.0400 268.0000 1.0000
60.0500 239.0000 1.0000
60.0600 219.0000 1.0000
60.0700 264.0000 1.0000
60.0800 262.0000 1.0000
60.0900 270.0000 1.0000
60.1000 269.0000 1.0000
60.1100 263.0000 1.0000
60.1200 265.0000 1.0000
60.1300 243.0000 1.0000
60.1400 265.0000 1.0000
60.1500 260.0000 1.0000
60.1600 250.0000 1.0000
60.1700 246.0000 1.0000
60.1800 272.0000 1.0000
60.1900 229.0000 1.0000
60.2000 258.0000 1.0000
60.2100 276.0000 1.0000
60.2200 246.0000 1.0000
60.2300 253.0000 1.0000
60.2400 251.0000 1.0000
60.2500 255.0000 1.0000
60.2600 262.0000 1.0000
60.2700 266.0000 1.0000
60.2800 242.0000 1.0000
60.2900 268.0000 1.0000
60.3000 259.0000 1.0000
60.3100 227.0000 1.0000
60.3200 223.0000 1.0000
60.3300 236.0000 1.0000
60.3400 241.0000 1.0000
60.3500 262.0000 1.0000
60.3600 237.0000 1.0000
60.3700 246.0000 1.0000
60.3800 239.0000 1.0000
60.3900 251.0000 1.0000
60.4000 263.0000 1.0000
60.4100 250.0000 1.0000
60.4200 273.0000 1.0000
60.4300 280.0000 1.0000
60.4400 271.0000 1.0000
60.4500 245.0000 1.0000
60.4600 263.0000 1.0000
60.4700 248.0000 1.0000
60.4800 263.0000 1.0000
60.4900 244.0000 1.0000
60.5000 269.0000 1.0000
60.5100 254.0000 1.0000
60.5200 255.0000 1.0000
60.5300 257.0000 1.0000
60.5400 258.0000 1.0000
60.5500 266.0000 1.0000
60.5600 253.0000 1.0000
60.5700 256.0000 1.0000
60.5800 253.0000 1.0000
60.5900 266.0000 1.0000
60.6000 244.0000 1.0000
60.6100 246.0000 1.0000
60.6200 253.0000 1.0000
60.6300 267.0000 1.0000
60.6400 242.0000 1.0000
60.6500 261.0000 1.0000
60.6600 266.0000 1.0000
60.6700 271.0000 1.0000
60.6800 249.0000 1.0000
60.6900 279.0000 1.0000
60.7000 252.0000 1.0000
60.7100 232.0000 1.0000
60.7200 254.0000 1.0000
60.7300 238.0000 1.0000
60.7400 234.0000 1.0000
60.7500 255.0000 1.0000
60.7600 239.0000 1.0000
60.7700 258.0000 1.0000
60.7800 257.0000 1.0000
60.7900 271.0000 1.0000
60.8000 246.0000 1.0000
60.8100 249.0000 1.0000
60.8200 235.0000 1.0000
60.8300 235.0000 1.0000
60.8400 274.0000 1.0000
60.8500 258.0000 1.0000
60.8600 241.0000 1.0000
60.8700 259.0000 1.0000
60.8800 234.0000 1.0000
60.8900 268.0000 1.0000
60.9000 266.0000 1.0000
60.9100 288.0000 1.0000
60.9200 273.0000 1.0000
60.9300 263.0000 1.0000
60.9400 275.0000 1.0000
60.9500 282.0000 1.0000
60.9600 277.0000 1.0000
60.9700 266.0000 1.0000
60.9800 253.0000 1.0000
60.9900 255.0000 1.0000
61.0000 243.0000 1.0000
61.0100 246.0000 1.0000
61.0200 273.0000 1.0000
61.0300 266.0000 1.0000
61.0400 256.0000 1.0000
61.0500 248.0000 1.0000
61.0600 266.0000 1.0000
61.0700 245.0000 1.0000
61.0800 243.0000 1.0000
61.0900 244.0000 1.0000
61.1000 250.0000 1.0000
61.1100 248.0000 1.0000
61.1200 270.0000 1.0000
61.1300 265.0000 1.0000
61.1400 259.0000 1.0000
61.1500 273.0000 1.0000
61.1600 258.0000 1.0000
61.1700 242.0000 1.0000
61.1800 260.0000 1.0000
61.1900 257.0000 1.0000
61.2000 263.0000 1.0000
61.2100 289.0000 1.0000
61.2200 250.0000 1.0000
61.2300 256.0000 1.0000
61.2400 258.0000 1.0000
61.2500 273.0000 1.0000
61.2600 288.0000 1.0000
61.2700 272.0000 1.0000
61.2800 276.0000 1.0000
61.2900 278.0000 1.0000
61.3000 263.0000 1.0000
61.3100 279.0000 1.0000
61.3200 305.0000 1.0000
61.3300 276.0000 1.0000
61.3400 275.0000 1.0000
61.3500 279.0000 1.0000
61.3600 294.0000 1.0000
61.3700 298.0000 1.0000
61.3800 284.0000 1.0000
61.3900 303.0000 1.0000
61.4000 297.0000 1.0000
61.4100 311.0000 1.0000
61.4200 300.0000 1.0000
61.4300 308.0000 1.0000
61.4400 324.0000 1.0000
61.4500 295.0000 1.0000
61.4600 316.0000 1.0000
61.4700 315.0000 1.0000
61.4800 350.0000 1.0000
61.4900 331.0000 1.0000
61.5000 320.0000 1.0000
61.5100 358.0000 1.0000
61.5200 376.0000 1.0000
61.5300 373.0000 1.0000
61.5400 398.0000 1.0000
61.5500 383.0000 1.0000
61.5600 402.0000 1.0000
61.5700 418.0000 1.0000
61.5800 443.0000 1.0000
61.5900 412.0000 1.0000
61.6000 456.0000 1.0000
61.6100 414.0000 1.0000
61.6200 434.0000 1.0000
61.6300 464.0000 1.0000
61.6400 489.0000 1.0000
61.6500 493.0000 1.0000
61.6600 504.0000 1.0000
61.6700 523.0000 1.0000
61.6800 503.0000 1.0000
61.6900 562.0000 1.0000
61.7000 538.0000 1.0000
61.7100 527.0000 1.0000
61.7200 565.0000 1.0000
61.7300 567.0000 1.0000
61.7400 584.0000 1.0000
61.7500 523.0000 1.0000
61.7600 561.0000 1.0000
61.7700 508.0000 1.0000
61.7800 516.0000 1.0000
61.7900 552.0000 1.0000
61.8000 536.0000 1.0000
61.8100 559.0000 1.0000
61.8200 535.0000 1.0000
61.8300 507.0000 1.0000
61.8400 522.0000 1.0000
61.8500 519.0000 1.0000
61.8600 547.0000 1.0000
61.8700 490.0000 1.0000
61.8800 497.0000 1.0000
61.8900 496.0000 1.0000
61.9000 467.0000 1.0000
61.9100 444.0000 1.0000
61.9200 479.0000 1.0000
61.9300 445.0000 1.0000
61.9400 465.0000 1.0000
61.9500 480.0000 1.0000
61.9600 438.0000 1.0000
61.9700 432.0000 1.0000
61.9800 458.0000 1.0000
61.9900 442.0000 1.0000
62.0000 386.0000 1.0000
62.0100 386.0000 1.0000
62.0200 375.0000 1.0000
62.0300 384.0000 1.0000
62.0400 387.0000 1.0000
62.0500 378.0000 1.0000
62.0600 373.0000 1.0000
62.0700 378.0000 1.0000
62.0800 357.0000 1.0000
62.0900 348.0000 1.0000
62.1000 344.0000 1.0000
62.1100 342.0000 1.0000
62.1200 317.0000 1.0000
62.1300 311.0000 1.0000
62.1400 315.0000 1.0000
62.1500 283.0000 1.0000
62.1600 305.0000 1.0000
62.1700 324.0000 1.0000
62.1800 309.0000 1.0000
62.1900 296.0000 1.0000
62.2000 301.0000 1.0000
62.2100 304.0000 1.0000
62.2200 321.0000 1.0000
62.2300 293.0000 1.0000
62.2400 293.0000 1.0000
62.2500 288.0000 1.0000
62.2600 284.0000 1.0000
62.2700 282.0000 1.0000
62.2800 298.0000 1.0000
62.2900 284.0000 1.0000
62.3000 271.0000 1.0000
62.3100 279.0000 1.0000
62.3200 282.0000 1.0000
62.3300 294.0000 1.0000
62.3400 283.0000 1.0000
62.3500 293.0000 1.0000
62.3600 302.0000 1.0000
62.3700 286.0000 1.0000
62.3800 269.0000 1.0000
62.3900 278.0000 1.0000
62.4000 281.0000 1.0000
62.4100 278.0000 1.0000
62.4200 276.0000 1.0000
62.4300 280.0000 1.0000
62.4400 294.0000 1.0000
62.4500 290.0000 1.0000
62.4600 298.0000 1.0000
62.4700 275.0000 1.0000
62.4800 284.0000 1.0000
62.4900 269.0000 1.0000
62.5000 268.0000 1.0000
62.5100 297.0000 1.0000
62.5200 316.0000 1.0000
62.5300 300.0000 1.0000
62.5400 301.0000 1.0000
62.5500 300.0000 1.0000
62.5600 300.0000 1.0000
62.5700 286.0000 1.0000
62.5800 292.0000 1.0000
62.5900 300.0000 1.0000
62.6000 283.0000 1.0000
62.6100 300.0000 1.0000
62.6200 283.0000 1.0000
62.6300 321.0000 1.0000
62.6400 312.0000 1.0000
62.6500 286.0000 1.0000
62.6600 287.0000 1.0000
62.6700 295.0000 1.0000
62.6800 271.0000 1.0000
62.6900 302.0000 1.0000
62.7000 307.0000 1.0000
62.7100 291.0000 1.0000
62.7200 320.0000 1.0000
62.7300 311.0000 1.0000
62.7400 296.0000 1.0000
62.7500 284.0000 1.0000
62.7600 294.0000 1.0000
62.7700 263.0000 1.0000
62.7800 267.0000 1.0000
62.7900 291.0000 1.0000
62.8000 299.0000 1.0000
62.8100 266.0000 1.0000
62.8200 249.0000 1.0000
62.8300 258.0000 1.0000
62.8400 271.0000 1.0000
62.8500 280.0000 1.0000
62.8600 258.0000 1.0000
62.8700 281.0000 1.0000
62.8800 268.0000 1.0000
62.8900 263.0000 1.0000
62.9000 247.0000 1.0000
62.9100 265.0000 1.0000
62.9200 253.0000 1.0000
62.9300 270.0000 1.0000
62.9400 253.0000 1.0000
62.9500 267.0000 1.0000
62.9600 249.0000 1.0000
62.9700 277.0000 1.0000
62.9800 254.0000 1.0000
62.9900 239.0000 1.0000
63.0000 255.0000 1.0000
63.0100 259.0000 1.0000
63.0200 262.0000 1.0000
63.0300 279.0000 1.0000
63.0400 275.0000 1.0000
63.0500 242.0000 1.0000
63.0600 237.0000 1.0000
63.0700 261.0000 1.0000
63.0800 239.0000 1.0000
63.0900 252.0000 1.0000
63.1000 279.0000 1.0000
63.1100 255.0000 1.0000
63.1200 239.0000 1.0000
63.1300 262.0000 1.0000
63.1400 261.0000 1.0000
63.1500 250.0000 1.0000
63.1600 232.0000 1.0000
63.1700 266.0000 1.0000
63.1800 262.0000 1.0000
63.1900 259.0000 1.0000
63.2000 230.0000 1.0000
63.2100 259.0000 1.0000
63.2200 259.0000 1.0000
63.2300 256.0000 1.0000
63.2400 241.0000 1.0000
63.2500 270.0000 1.0000
63.2600 264.0000 1.0000
63.2700 235.0000 1.0000
63.2800 254.0000 1.0000
63.2900 263.0000 1.0000
63.3000 269.0000 1.0000
63.3100 252.0000 1.0000
63.3200 238.0000 1.0000
63.3300 250.0000 1.0000
63.3400 275.0000 1.0000
63.3500 270.0000 1.0000
63.3600 259.0000 1.0000
63.3700 246.0000 1.0000
63.3800 251.0000 1.0000
63.3900 244.0000 1.0000
63.4000 247.0000 1.0000
63.4100 240.0000 1.0000
63.4200 237.0000 1.0000
63.4300 279.0000 1.0000
63.4400 259.0000 1.0000
63.4500 250.0000 1.0000
63.4600 261.0000 1.0000
63.4700 270.0000 1.0000
63.4800 265.0000 1.0000
63.4900 275.0000 1.0000
63.5000 281.0000 1.0000
63.5100 247.0000 1.0000
63.5200 248.0000 1.0000
63.5300 240.0000 1.0000
63.5400 248.0000 1.0000
63.5500 274.0000 1.0000
63.5600 255.0000 1.0000
63.5700 243.0000 1.0000
63.5800 233.0000 1.0000
63.5900 236.0000 1.0000
63.6000 261.0000 1.0000
63.6100 249.0000 1.0000
63.6200 257.0000 1.0000
63.6300 249.0000 1.0000
63.6400 255.0000 1.0000
63.6500 265.0000 1.0000
63.6600 259.0000 1.0000
63.6700 294.0000 1.0000
63.6800 257.0000 1.0000
63.6900 260.0000 1.0000
63.7000 288.0000 1.0000
63.7100 276.0000 1.0000
63.7200 231.0000 1.0000
63.7300 251.0000 1.0000
63.7400 269.0000 1.0000
63.7500 249.0000 1.0000
63.7600 258.0000 1.0000
63.7700 270.0000 1.0000
63.7800 238.0000 1.0000
63.7900 264.0000 1.0000
63.8000 241.0000 1.0000
63.8100 295.0000 1.0000
63.8200 238.0000 1.0000
63.8300 243.0000 1.0000
63.8400 255.0000 1.0000
63.8500 257.0000 1.0000
63.8600 281.0000 1.0000
63.8700 238.0000 1.0000
63.8800 279.0000 1.0000
63.8900 279.0000 1.0000
63.9000 280.0000 1.0000
63.9100 258.0000 1.0000
63.9200 254.0000 1.0000
63.9300 279.0000 1.0000
63.9400 307.0000 1.0000
63.9500 277.0000 1.0000
63.9600 293.0000 1.0000
63.9700 280.0000 1.0000
63.9800 285.0000 1.0000
63.9900 300.0000 1.0000
64.0000 274.0000 1.0000
64.0100 288.0000 1.0000
64.0200 268.0000 1.0000
64.0300 289.0000 1.0000
64.0400 312.0000 1.0000
64.0500 279.0000 1.0000
64.0600 296.0000 1.0000
64.0700 311.0000 1.0000
64.0800 316.0000 1.0000
64.0900 286.0000 1.0000
64.1000 326.0000 1.0000
64.1100 341.0000 1.0000
64.1200 330.0000 1.0000
64.1300 327.0000 1.0000
64.1400 346.0000 1.0000
64.1500 372.0000 1.0000
64.1600 377.0000 1.0000
64.1700 363.0000 1.0000
64.1800 351.0000 1.0000
64.1900 328.0000 1.0000
64.2000 337.0000 1.0000
64.2100 325.0000 1.0000
64.2200 323.0000 1.0000
64.2300 337.0000 1.0000
64.2400 336.0000 1.0000
64.2500 294.0000 1.0000
64.2600 302.0000 1.0000
64.2700 316.0000 1.0000
64.2800 316.0000 1.0000
64.2900 305.0000 1.0000
64.3000 315.0000 1.0000
64.3100 308.0000 1.0000
64.3200 291.0000 1.0000
64.3300 299.0000 1.0000
64.3400 307.0000 1.0000
64.3500 306.0000 1.0000
64.3600 314.0000 1.0000
64.3700 299.0000 1.0000
64.3800 298.0000 1.0000
64.3900 291.0000 1.0000
64.4000 294.0000 1.0000
64.4100 291.0000 1.0000
64.4200 288.0000 1.0000
64.4300 302.0000 1.0000
64.4400 293.0000 1.0000
64.4500 306.0000 1.0000
64.4600 336.0000 1.0000
64.4700 281.0000 1.0000
64.4800 263.0000 1.0000
64.4900 301.0000 1.0000
64.5000 272.0000 1.0000
64.5100 293.0000 1.0000
64.5200 279.0000 1.0000
64.5300 289.0000 1.0000
64.5400 281.0000 1.0000
64.5500 263.0000 1.0000
64.5600 276.0000 1.0000
64.5700 280.0000 1.0000
64.5800 267.0000 1.0000
64.5900 252.0000 1.0000
64.6000 271.0000 1.0000
64.6100 253.0000 1.0000
64.6200 246.0000 1.0000
64.6300 272.0000 1.0000
64.6400 296.0000 1.0000
64.6500 265.0000 1.0000
64.6600 286.0000 1.0000
64.6700 265.0000 1.0000
64.6800 272.0000 1.0000
64.6900 276.0000 1.0000
64.7000 277.0000 1.0000
64.7100 270.0000 1.0000
64.7200 241.0000 1.0000
64.7300 241.0000 1.0000
64.7400 273.0000 1.0000
64.7500 287.0000 1.0000
64.7600 255.0000 1.0000
64.7700 268.0000 1.0000
64.7800 274.0000 1.0000
64.7900 276.0000 1.0000
64.8000 265.0000 1.0000
64.8100 274.0000 1.0000
64.8200 282.0000 1.0000
64.8300 269.0000 1.0000
64.8400 253.0000 1.0000
64.8500 243.0000 1.0000
64.8600 248.0000 1.0000
64.8700 252.0000 1.0000
64.8800 245.0000 1.0000
64.8900 262.0000 1.0000
64.9000 261.0000 1.0000
64.9100 250.0000 1.0000
64.9200 264.0000 1.0000
64.9300 281.0000 1.0000
64.9400 248.0000 1.0000
64.9500 241.0000 1.0000
64.9600 253.0000 1.0000
64.9700 246.0000 1.0000
64.9800 252.0000 1.0000
64.9900 290.0000 1.0000
65.0000 273.0000 1.0000
65.0100 261.0000 1.0000
65.0200 275.0000 1.0000
65.0300 252.0000 1.0000
65.0400 285.0000 1.0000
65.0500 254.0000 1.0000
65.0600 261.0000 1.0000
65.0700 270.0000 1.0000
65.0800 277.0000 1.0000
65.0900 269.0000 1.0000
65.1000 271.0000 1.0000
65.1100 277.0000 1.0000
65.1200 251.0000 1.0000
65.1300 269.0000 1.0000
65.1400 264.0000 1.0000
65.1500 260.0000 1.0000
65.1600 245.0000 1.0000
65.1700 267.0000 1.0000
65.1800 300.0000 1.0000
65.1900 301.0000 1.0000
65.2000 255.0000 1.0000
65.2100 255.0000 1.0000
65.2200 259.0000 1.0000
65.2300 289.0000 1.0000
65.2400 280.0000 1.0000
65.2500 291.0000 1.0000
65.2600 315.0000 1.0000
65.2700 271.0000 1.0000
65.2800 311.0000 1.0000
65.2900 304.0000 1.0000
65.3000 273.0000 1.0000
65.3100 274.0000 1.0000
65.3200 298.0000 1.0000
65.3300 285.0000 1.0000
65.3400 332.0000 1.0000
65.3500 351.0000 1.0000
65.3600 285.0000 1.0000
65.3700 301.0000 1.0000
65.3800 321.0000 1.0000
65.3900 303.0000 1.0000
65.4000 337.0000 1.0000
65.4100 306.0000 1.0000
65.4200 351.0000 1.0000
65.4300 346.0000 1.0000
65.4400 354.0000 1.0000
65.4500 394.0000 1.0000
65.4600 369.0000 1.0000
65.4700 409.0000 1.0000
65.4800 414.0000 1.0000
65.4900 393.0000 1.0000
65.5000 404.0000 1.0000
65.5100 424.0000 1.0000
65.5200 442.0000 1.0000
65.5300 429.0000 1.0000
65.5400 451.0000 1.0000
65.5500 495.0000 1.0000
65.5600 491.0000 1.0000
65.5700 514.0000 1.0000
65.5800 553.0000 1.0000
65.5900 551.0000 1.0000
65.6000 587.0000 1.0000
65.6100 608.0000 1.0000
65.6200 620.0000 1.0000
65.6300 659.0000 1.0000
65.6400 650.0000 1.0000
65.6500 695.0000 1.0000
65.6600 723.0000 1.0000
65.6700 743.0000 1.0000
65.6800 786.0000 1.0000
65.6900 807.0000 1.0000
65.7000 843.0000 1.0000
65.7100 847.0000 1.0000
65.7200 911.0000 1.0000
65.7300 919.0000 1.0000
65.7400 890.0000 1.0000
65.7500 913.0000 1.0000
65.7600 929.0000 1.0000
65.7700 869.0000 1.0000
65.7800 888.0000 1.0000
65.7900 907.0000 1.0000
65.8000 896.0000 1.0000
65.8100 880.0000 1.0000
65.8200 832.0000 1.0000
65.8300 832.0000 1.0000
65.8400 802.0000 1.0000
65.8500 783.0000 1.0000
65.8600 813.0000 1.0000
65.8700 810.0000 1.0000
65.8800 728.0000 1.0000
65.8900 706.0000 1.0000
65.9000 769.0000 1.0000
65.9100 760.0000 1.0000
65.9200 691.0000 1.0000
65.9300 723.0000 1.0000
65.9400 695.0000 1.0000
65.9500 631.0000 1.0000
65.9600 653.0000 1.0000
65.9700 623.0000 1.0000
65.9800 577.0000 1.0000
65.9900 578.0000 1.0000
66.0000 545.0000 1.0000
66.0100 535.0000 1.0000
66.0200 491.0000 1.0000
66.0300 514.0000 1.0000
66.0400 474.0000 1.0000
66.0500 470.0000 1.0000
66.0600 429.0000 1.0000
66.0700 411.0000 1.0000
66.0800 405.0000 1.0000
66.0900 410.0000 1.0000
66.1000 419.0000 1.0000
66.1100 418.0000 1.0000
66.1200 374.0000 1.0000
66.1300 373.0000 1.0000
66.1400 349.0000 1.0000
66.1500 374.0000 1.0000
66.1600 349.0000 1.0000
66.1700 353.0000 1.0000
66.1800 334.0000 1.0000
66.1900 338.0000 1.0000
66.2000 325.0000 1.0000
66.2100 283.0000 1.0000
66.2200 311.0000 1.0000
66.2300 307.0000 1.0000
66.2400 305.0000 1.0000
66.2500 302.0000 1.0000
66.2600 278.0000 1.0000
66.2700 317.0000 1.0000
66.2800 292.0000 1.0000
66.2900 281.0000 1.0000
66.3000 278.0000 1.0000
66.3100 274.0000 1.0000
66.3200 264.0000 1.0000
66.3300 259.0000 1.0000
66.3400 279.0000 1.0000
66.3500 272.0000 1.0000
66.3600 269.0000 1.0000
66.3700 272.0000 1.0000
66.3800 262.0000 1.0000
66.3900 269.0000 1.0000
66.4000 256.0000 1.0000
66.4100 250.0000 1.0000
66.4200 237.0000 1.0000
66.4300 273.0000 1.0000
66.4400 222.0000 1.0000
66.4500 245.0000 1.0000
66.4600 262.0000 1.0000
66.4700 263.0000 1.0000
66.4800 262.0000 1.0000
66.4900 225.0000 1.0000
66.5000 254.0000 1.0000
66.5100 264.0000 1.0000
66.5200 248.0000 1.0000
66.5300 254.0000 1.0000
66.5400 277.0000 1.0000
66.5500 241.0000 1.0000
66.5600 288.0000 1.0000
66.5700 252.0000 1.0000
66.5800 226.0000 1.0000
66.5900 222.0000 1.0000
66.6000 265.0000 1.0000
66.6100 240.0000 1.0000
66.6200 237.0000 1.0000
66.6300 236.0000 1.0000
66.6400 257.0000 1.0000
66.6500 242.0000 1.0000
66.6600 246.0000 1.0000
66.6700 232.0000 1.0000
66.6800 252.0000 1.0000
66.6900 247.0000 1.0000
66.7000 234.0000 1.0000
66.7100 252.0000 1.0000
66.7200 241.0000 1.0000
66.7300 258.0000 1.0000
66.7400 223.0000 1.0000
66.7500 248.0000 1.0000
66.7600 229.0000 1.0000
66.7700 274.0000 1.0000
66.7800 237.0000 1.0000
66.7900 240.0000 1.0000
66.8000 274.0000 1.0000
66.8100 253.0000 1.0000
66.8200 228.0000 1.0000
66.8300 243.0000 1.0000
66.8400 249.0000 1.0000
66.8500 251.0000 1.0000
66.8600 236.0000 1.0000
66.8700 267.0000 1.0000
66.8800 248.0000 1.0000
66.8900 218.0000 1.0000
66.9000 249.0000 1.0000
66.9100 262.0000 1.0000
66.9200 238.0000 1.0000
66.9300 251.0000 1.0000
66.9400 204.0000 1.0000
66.9500 221.0000 1.0000
66.9600 253.0000 1.0000
66.9700 250.0000 1.0000
66.9800 222.0000 1.0000
66.9900 245.0000 1.0000
67.0000 243.0000 1.0000
67.0100 247.0000 1.0000
67.0200 227.0000 1.0000
67.0300 245.0000 1.0000
67.0400 234.0000 1.0000
67.0500 229.0000 1.0000
67.0600 226.0000 1.0000
67.0700 236.0000 1.0000
67.0800 246.0000 1.0000
67.0900 221.0000 1.0000
67.1000 236.0000 1.0000
67.1100 252.0000 1.0000
67.1200 239.0000 1.0000
67.1300 210.0000 1.0000
67.1400 218.0000 1.0000
67.1500 217.0000 1.0000
67.1600 234.0000 1.0000
67.1700 218.0000 1.0000
67.1800 230.0000 1.0000
67.1900 238.0000 1.0000
67.2000 245.0000 1.0000
67.2100 234.0000 1.0000
67.2200 222.0000 1.0000
67.2300 239.0000 1.0000
67.2400 231.0000 1.0000
67.2500 223.0000 1.0000
67.2600 239.0000 1.0000
67.2700 235.0000 1.0000
67.2800 253.0000 1.0000
67.2900 234.0000 1.0000
67.3000 238.0000 1.0000
67.3100 250.0000 1.0000
67.3200 245.0000 1.0000
67.3300 242.0000 1.0000
67.3400 235.0000 1.0000
67.3500 229.0000 1.0000
67.3600 220.0000 1.0000
67.3700 217.0000 1.0000
67.3800 220.0000 1.0000
67.3900 230.0000 1.0000
67.4000 221.0000 1.0000
67.4100 221.0000 1.0000
67.4200 258.0000 1.0000
67.4300 243.0000 1.0000
67.4400 239.0000 1.0000
67.4500 242.0000 1.0000
67.4600 236.0000 1.0000
67.4700 220.0000 1.0000
67.4800 228.0000 1.0000
67.4900 226.0000 1.0000
67.5000 225.0000 1.0000
67.5100 230.0000 1.0000
67.5200 212.0000 1.0000
67.5300 238.0000 1.0000
67.5400 237.0000 1.0000
67.5500 200.0000 1.0000
67.5600 197.0000 1.0000
67.5700 215.0000 1.0000
67.5800 211.0000 1.0000
67.5900 220.0000 1.0000
67.6000 223.0000 1.0000
67.6100 233.0000 1.0000
67.6200 231.0000 1.0000
67.6300 222.0000 1.0000
67.6400 227.0000 1.0000
67.6500 236.0000 1.0000
67.6600 224.0000 1.0000
67.6700 221.0000 1.0000
67.6800 234.0000 1.0000
67.6900 237.0000 1.0000
67.7000 230.0000 1.0000
67.7100 235.0000 1.0000
67.7200 235.0000 1.0000
67.7300 223.0000 1.0000
67.7400 223.0000 1.0000
67.7500 232.0000 1.0000
67.7600 225.0000 1.0000
67.7700 266.0000 1.0000
67.7800 230.0000 1.0000
67.7900 235.0000 1.0000
67.8000 227.0000 1.0000
67.8100 211.0000 1.0000
67.8200 230.0000 1.0000
67.8300 225.0000 1.0000
67.8400 234.0000 1.0000
67.8500 212.0000 1.0000
67.8600 253.0000 1.0000
67.8700 221.0000 1.0000
67.8800 248.0000 1.0000
67.8900 233.0000 1.0000
67.9000 226.0000 1.0000
67.9100 231.0000 1.0000
67.9200 214.0000 1.0000
67.9300 230.0000 1.0000
67.9400 236.0000 1.0000
67.9500 224.0000 1.0000
67.9600 229.0000 1.0000
67.9700 247.0000 1.0000
67.9800 236.0000 1.0000
67.9900 202.0000 1.0000
68.0000 221.0000 1.0000
68.0100 227.0000 1.0000
68.0200 231.0000 1.0000
68.0300 219.0000 1.0000
68.0400 218.0000 1.0000
68.0500 205.0000 1.0000
68.0600 246.0000 1.0000
68.0700 245.0000 1.0000
68.0800 236.0000 1.0000
68.0900 214.0000 1.0000
68.1000 241.0000 1.0000
68.1100 243.0000 1.0000
68.1200 259.0000 1.0000
68.1300 212.0000 1.0000
68.1400 242.0000 1.0000
68.1500 234.0000 1.0000
68.1600 232.0000 1.0000
68.1700 234.0000 1.0000
68.1800 238.0000 1.0000
68.1900 230.0000 1.0000
68.2000 229.0000 1.0000
68.2100 220.0000 1.0000
68.2200 249.0000 1.0000
68.2300 211.0000 1.0000
68.2400 223.0000 1.0000
68.2500 224.0000 1.0000
68.2600 219.0000 1.0000
68.2700 232.0000 1.0000
68.2800 247.0000 1.0000
68.2900 226.0000 1.0000
68.3000 228.0000 1.0000
68.3100 233.0000 1.0000
68.3200 242.0000 1.0000
68.3300 214.0000 1.0000
68.3400 223.0000 1.0000
68.3500 248.0000 1.0000
68.3600 250.0000 1.0000
68.3700 221.0000 1.0000
68.3800 231.0000 1.0000
68.3900 243.0000 1.0000
68.4000 249.0000 1.0000
68.4100 220.0000 1.0000
68.4200 223.0000 1.0000
68.4300 258.0000 1.0000
68.4400 233.0000 1.0000
68.4500 216.0000 1.0000
68.4600 248.0000 1.0000
68.4700 235.0000 1.0000
68.4800 217.0000 1.0000
68.4900 226.0000 1.0000
68.5000 229.0000 1.0000
68.5100 232.0000 1.0000
68.5200 222.0000 1.0000
68.5300 250.0000 1.0000
68.5400 240.0000 1.0000
68.5500 236.0000 1.0000
68.5600 224.0000 1.0000
68.5700 212.0000 1.0000
68.5800 237.0000 1.0000
68.5900 224.0000 1.0000
68.6000 213.0000 1.0000
68.6100 242.0000 1.0000
68.6200 238.0000 1.0000
68.6300 228.0000 1.0000
68.6400 234.0000 1.0000
68.6500 235.0000 1.0000
68.6600 243.0000 1.0000
68.6700 253.0000 1.0000
68.6800 228.0000 1.0000
68.6900 220.0000 1.0000
68.7000 228.0000 1.0000
68.7100 217.0000 1.0000
68.7200 203.0000 1.0000
68.7300 199.0000 1.0000
68.7400 248.0000 1.0000
68.7500 231.0000 1.0000
68.7600 202.0000 1.0000
68.7700 227.0000 1.0000
68.7800 221.0000 1.0000
68.7900 251.0000 1.0000
68.8000 227.0000 1.0000
68.8100 237.0000 1.0000
68.8200 224.0000 1.0000
68.8300 236.0000 1.0000
68.8400 228.0000 1.0000
68.8500 255.0000 1.0000
68.8600 243.0000 1.0000
68.8700 229.0000 1.0000
68.8800 239.0000 1.0000
68.8900 234.0000 1.0000
68.9000 223.0000 1.0000
68.9100 222.0000 1.0000
68.9200 229.0000 1.0000
68.9300 223.0000 1.0000
68.9400 222.0000 1.0000
68.9500 200.0000 1.0000
68.9600 223.0000 1.0000
68.9700 229.0000 1.0000
68.9800 240.0000 1.0000
68.9900 231.0000 1.0000
69.0000 217.0000 1.0000
69.0100 217.0000 1.0000
69.0200 250.0000 1.0000
69.0300 246.0000 1.0000
69.0400 233.0000 1.0000
69.0500 217.0000 1.0000
69.0600 208.0000 1.0000
69.0700 216.0000 1.0000
69.0800 244.0000 1.0000
69.0900 249.0000 1.0000
69.1000 253.0000 1.0000
69.1100 252.0000 1.0000
69.1200 224.0000 1.0000
69.1300 216.0000 1.0000
69.1400 232.0000 1.0000
69.1500 223.0000 1.0000
69.1600 217.0000 1.0000
69.1700 247.0000 1.0000
69.1800 231.0000 1.0000
69.1900 223.0000 1.0000
69.2000 211.0000 1.0000
69.2100 229.0000 1.0000
69.2200 202.0000 1.0000
69.2300 212.0000 1.0000
69.2400 234.0000 1.0000
69.2500 208.0000 1.0000
69.2600 230.0000 1.0000
69.2700 226.0000 1.0000
69.2800 229.0000 1.0000
69.2900 258.0000 1.0000
69.3000 222.0000 1.0000
69.3100 250.0000 1.0000
69.3200 235.0000 1.0000
69.3300 228.0000 1.0000
69.3400 211.0000 1.0000
69.3500 224.0000 1.0000
69.3600 221.0000 1.0000
69.3700 209.0000 1.0000
69.3800 202.0000 1.0000
69.3900 212.0000 1.0000
69.4000 219.0000 1.0000
69.4100 193.0000 1.0000
69.4200 212.0000 1.0000
69.4300 252.0000 1.0000
69.4400 218.0000 1.0000
69.4500 213.0000 1.0000
69.4600 225.0000 1.0000
69.4700 190.0000 1.0000
69.4800 220.0000 1.0000
69.4900 234.0000 1.0000
69.5000 231.0000 1.0000
69.5100 202.0000 1.0000
69.5200 249.0000 1.0000
69.5300 211.0000 1.0000
69.5400 209.0000 1.0000
69.5500 225.0000 1.0000
69.5600 205.0000 1.0000
69.5700 202.0000 1.0000
69.5800 240.0000 1.0000
69.5900 236.0000 1.0000
69.6000 222.0000 1.0000
69.6100 213.0000 1.0000
69.6200 206.0000 1.0000
69.6300 205.0000 1.0000
69.6400 213.0000 1.0000
69.6500 237.0000 1.0000
69.6600 196.0000 1.0000
69.6700 232.0000 1.0000
69.6800 224.0000 1.0000
69.6900 248.0000 1.0000
69.7000 272.0000 1.0000
69.7100 246.0000 1.0000
69.7200 229.0000 1.0000
69.7300 219.0000 1.0000
69.7400 225.0000 1.0000
69.7500 216.0000 1.0000
69.7600 217.0000 1.0000
69.7700 243.0000 1.0000
69.7800 209.0000 1.0000
69.7900 219.0000 1.0000
69.8000 217.0000 1.0000
69.8100 203.0000 1.0000
69.8200 224.0000 1.0000
69.8300 233.0000 1.0000
69.8400 203.0000 1.0000
69.8500 227.0000 1.0000
69.8600 246.0000 1.0000
69.8700 228.0000 1.0000
69.8800 216.0000 1.0000
69.8900 224.0000 1.0000
69.9000 216.0000 1.0000
69.9100 205.0000 1.0000
69.9200 206.0000 1.0000
69.9300 212.0000 1.0000
69.9400 213.0000 1.0000
69.9500 245.0000 1.0000
69.9600 203.0000 1.0000
69.9700 198.0000 1.0000
69.9800 199.0000 1.0000
69.9900 214.0000 1.0000
70.0000 224.0000 1.0000
*RAS_INT_END
*RAS_TEMPERATURE_START
*RAS_TEMPERATURE_END
*RAS_DATA_END
