*RAS_DATA_START
*RAS_HEADER_START
*DISP_FMT_X "%.2f"
*DISP_FMT_Y "%.0f"
*DISP_FULLSCALE "12970.0000000000"
*DISP_LINE_COLOR "255.0000000000"
*DISP_LINE_STYLE "0.0000000000"
*DISP_LINE_WIDTH "0.2500000000"
*DISP_NOTE "測定データ-3"
*DISP_OFFSET_Y "0.0000000000"
*DISP_PEAKSEARCH_UNIT_Y "cps"
*DISP_RANGE_BOTTOM "0.0000000000"
*DISP_RANGE_LEFT "20.0000000000"
*DISP_RANGE_LOGCUTOFF "0.0100000000"
*DISP_RANGE_RIGHT "70.0000000000"
*DISP_RANGE_TOP "12970.0000000000"
*DISP_SCALE_MODE_Y "0.0000000000"
*DISP_TAB_NAME "2θ/θ"
*DISP_TITLE_Y "強度"
*DISP_UNIT_Y "cps"
*DISP_WINDOW_NAME "MSG_MACROENGINE"
*FILE_COMMENT " "
*FILE_MD5 ""
*FILE_MEMO " "
*FILE_OPERATOR "Administrator"
*FILE_SAMPLE " "
*FILE_TYPE "RAS_RAW"
*FILE_USERGROUP "システムマネージャ"
*FILE_VERSION "1.0000000000"
*HW_ATTACHMENT_ID "ATT0025"
*HW_ATTACHMENT_NAME "標準|Standard"
*HW_COUNTER_ID-0 "CUT0025"
*HW_COUNTER_ID-1 "CUT0020"
*HW_COUNTER_ID-2 "CUT0020"
*HW_COUNTER_ID-3 "CSL0021"
*HW_COUNTER_ID-4 "CMC0021"
*HW_COUNTER_NAME-0 "D/teX Ultra|D/teX Ultra"
*HW_COUNTER_NAME-1 "None|None"
*HW_COUNTER_NAME-2 "None|None"
*HW_COUNTER_NAME-3 "BBM|BBM"
*HW_COUNTER_NAME-4 "検出器モノクロメータ|Detector monochromator"
*HW_COUNTER_SELECT_NAME "D/teX Ultra|D/teX Ultra"
*HW_GONIOMETER_ID "GON0023"
*HW_GONIOMETER_NAME "SmartLab|SmartLab"
*HW_GONIOMETER_RADIUS-0 "90.0"
*HW_GONIOMETER_RADIUS-1 "114.0"
*HW_GONIOMETER_RADIUS-2 "190.0"
*HW_GONIOMETER_RADIUS-3 "300.0"
*HW_GONIOMETER_RADIUS-4 "187.0"
*HW_GONIOMETER_RADIUS-5 "300.0"
*HW_GONIOMETER_RADIUS-6 "113.0"
*HW_GONIOMETER_RADIUS-7 "331.0"
*HW_I_OPT_ID-0 "CBO0021"
*HW_I_OPT_ID-1 "ICR0023"
*HW_I_OPT_ID-2 "ISL0021"
*HW_I_OPT_ID-3 "ISO0021"
*HW_I_OPT_ID-4 "IAD0021"
*HW_I_OPT_ID-5 "IPR0001"
*HW_I_OPT_NAME-0 "CBOユニット|CBO unit"
*HW_I_OPT_NAME-1 "標準入射光学ユニット|Standard incident optical unit"
*HW_I_OPT_NAME-2 "標準入射スリットボックス|Standard incident slit box"
*HW_I_OPT_NAME-3 "入射平行スリット|Incident parallel slit"
*HW_I_OPT_NAME-4 "長手制限スリット|Length limiting slit"
*HW_I_OPT_NAME-5 "None|None"
*HW_R_ATTENUATER_AUTOMODE "0"
*HW_R_OPT_ID-0 "RSS0021"
*HW_R_OPT_ID-1 "RCR0023"
*HW_R_OPT_ID-2 "RSO0021"
*HW_R_OPT_ID-3 "RRS0021"
*HW_R_OPT_ID-4 "ATN0021"
*HW_R_OPT_ID-5 "RFL0021"
*HW_R_OPT_ID-6 "RAD0021"
*HW_R_OPT_NAME-0 "標準受光スリットボックス1|Standard receiving slit box # 1"
*HW_R_OPT_NAME-1 "標準受光光学ユニット1|Standard receiving unit # 1"
*HW_R_OPT_NAME-2 "標準受光光学ユニット2|Standard receiving optical unit # 2"
*HW_R_OPT_NAME-3 "標準受光スリットボックス2|Standard receiving slit box # 2"
*HW_R_OPT_NAME-4 "標準アッテネータ|Standard Attenuator"
*HW_R_OPT_NAME-5 "Cu Kβ|Cu K-beta"
*HW_R_OPT_NAME-6 "調整用受光スリット|Alignment receiving slit"
*HW_SAMPLE_HOLDER_ID "SMP0023"
*HW_SAMPLE_HOLDER_NAME "標準Zステージ|Standard Z stage"
*HW_XG_CURRENT_MAX "50"
*HW_XG_CURRENT_MIN "2"
*HW_XG_CURRENT_RESOLUTION "1"
*HW_XG_CURRENT_UNIT "mA"
*HW_XG_FOCUS "1mm x 10mm"
*HW_XG_FOCUS_TYPE "Normal"
*HW_XG_ID ""
*HW_XG_NAME "3kW 封入管(ID:1200)|3kW Sealed tube(ID:1200)"
*HW_XG_TARGET_ATOMIC_NUMBER "29.0000000000"
*HW_XG_TARGET_NAME "Cu"
*HW_XG_TYPE "Hermetic"
*HW_XG_VOLTAGE_MAX "60"
*HW_XG_VOLTAGE_MIN "20"
*HW_XG_VOLTAGE_RESOLUTION "1"
*HW_XG_VOLTAGE_UNIT "kV"
*HW_XG_WATT_MAX "1.500"
*HW_XG_WATT_UNIT "kW"
*HW_XG_WAVE_LENGTH_ALPHA1 "1.540593"
*HW_XG_WAVE_LENGTH_ALPHA2 "1.544414"
*HW_XG_WAVE_LENGTH_BETA "1.392250"
*MEAS_COND_AXIS_NAME-0 "2θ/θ"
*MEAS_COND_AXIS_NAME-1 "2θ"
*MEAS_COND_AXIS_NAME-2 "ω"
*MEAS_COND_AXIS_NAME-3 "Z"
*MEAS_COND_AXIS_NAME-4 "2θ/ω"
*MEAS_COND_AXIS_NAME-5 "θs"
*MEAS_COND_AXIS_NAME-6 "θd"
*MEAS_COND_AXIS_NAME-7 "Ts"
*MEAS_COND_AXIS_NAME-8 "CBO選択スリット"
*MEAS_COND_AXIS_NAME-9 "M"
*MEAS_COND_AXIS_NAME-10 "入射平行スリット"
*MEAS_COND_AXIS_NAME-11 "入射スリット"
*MEAS_COND_AXIS_NAME-12 ""
*MEAS_COND_AXIS_NAME-13 "Zs"
*MEAS_COND_AXIS_NAME-14 "入射光学素子"
*MEAS_COND_AXIS_NAME-15 "長手制限スリット"
*MEAS_COND_AXIS_NAME-16 "センタースリット"
*MEAS_COND_AXIS_NAME-17 "フィルター"
*MEAS_COND_AXIS_NAME-18 "受光スリット1"
*MEAS_COND_AXIS_NAME-19 "受光スリット2"
*MEAS_COND_AXIS_NAME-20 "受光光学素子"
*MEAS_COND_AXIS_NAME-21 "受光平行スリット"
*MEAS_COND_AXIS_NAME-22 "調整用受光スリット"
*MEAS_COND_AXIS_NAME-23 ""
*MEAS_COND_AXIS_NAME-24 ""
*MEAS_COND_AXIS_NAME-25 "Zd"
*MEAS_COND_AXIS_NAME-26 "アッテネータ"
*MEAS_COND_AXIS_NAME-27 "検出器モノクロメータ"
*MEAS_COND_AXIS_NAME-28 "モノクロメータスリット"
*MEAS_COND_AXIS_NAME-29 "プライマリビーム"
*MEAS_COND_AXIS_NAME-30 "PHA"
*MEAS_COND_AXIS_NAME_INTERNAL-0 "TwoThetaTheta"
*MEAS_COND_AXIS_NAME_INTERNAL-1 "TwoTheta"
*MEAS_COND_AXIS_NAME_INTERNAL-2 "Omega"
*MEAS_COND_AXIS_NAME_INTERNAL-3 "Z"
*MEAS_COND_AXIS_NAME_INTERNAL-4 "TwoThetaOmega"
*MEAS_COND_AXIS_NAME_INTERNAL-5 "ThetaS"
*MEAS_COND_AXIS_NAME_INTERNAL-6 "ThetaD"
*MEAS_COND_AXIS_NAME_INTERNAL-7 "Ts"
*MEAS_COND_AXIS_NAME_INTERNAL-8 "CBO"
*MEAS_COND_AXIS_NAME_INTERNAL-9 "CBO-M"
*MEAS_COND_AXIS_NAME_INTERNAL-10 "IncidentSollerSlit"
*MEAS_COND_AXIS_NAME_INTERNAL-11 "IncidentSlitBox"
*MEAS_COND_AXIS_NAME_INTERNAL-12 "IncidentSlitBox-_Axis"
*MEAS_COND_AXIS_NAME_INTERNAL-13 "Zs"
*MEAS_COND_AXIS_NAME_INTERNAL-14 "IncidentMonochromator"
*MEAS_COND_AXIS_NAME_INTERNAL-15 "IncidentAxdSlit"
*MEAS_COND_AXIS_NAME_INTERNAL-16 "CenterSlit"
*MEAS_COND_AXIS_NAME_INTERNAL-17 "Filter"
*MEAS_COND_AXIS_NAME_INTERNAL-18 "ReceivingSlitBox1"
*MEAS_COND_AXIS_NAME_INTERNAL-19 "ReceivingSlitBox2"
*MEAS_COND_AXIS_NAME_INTERNAL-20 "ReceivingOptics"
*MEAS_COND_AXIS_NAME_INTERNAL-21 "ReceivingSollerSlit"
*MEAS_COND_AXIS_NAME_INTERNAL-22 "ReceivingAxdSlit"
*MEAS_COND_AXIS_NAME_INTERNAL-23 "ReceivingSlitBox1-_Axis"
*MEAS_COND_AXIS_NAME_INTERNAL-24 "ReceivingSlitBox2-_Axis"
*MEAS_COND_AXIS_NAME_INTERNAL-25 "ReceivingSlitBox2-Zd"
*MEAS_COND_AXIS_NAME_INTERNAL-26 "Attenuator"
*MEAS_COND_AXIS_NAME_INTERNAL-27 "CounterMonochromator"
*MEAS_COND_AXIS_NAME_INTERNAL-28 "CounterSlit"
*MEAS_COND_AXIS_NAME_INTERNAL-29 "IncidentPrimary"
*MEAS_COND_AXIS_NAME_INTERNAL-30 "PHA"
*MEAS_COND_AXIS_NAME_MAGICNO-0 "83951616.0000000000"
*MEAS_COND_AXIS_NAME_MAGICNO-1 "268632064.0000000000"
*MEAS_COND_AXIS_NAME_MAGICNO-2 "268500992.0000000000"
*MEAS_COND_AXIS_NAME_MAGICNO-3 "285278208.0000000000"
*MEAS_COND_AXIS_NAME_MAGICNO-4 "83951616.0000000000"
*MEAS_COND_AXIS_NAME_MAGICNO-5 "131072.0000000000"
*MEAS_COND_AXIS_NAME_MAGICNO-6 "131072.0000000000"
*MEAS_COND_AXIS_NAME_MAGICNO-7 "318898176.0000000000"
*MEAS_COND_AXIS_NAME_MAGICNO-8 "20971521.0000000000"
*MEAS_COND_AXIS_NAME_MAGICNO-9 "285343744.0000000000"
*MEAS_COND_AXIS_NAME_MAGICNO-10 "20971521.0000000000"
*MEAS_COND_AXIS_NAME_MAGICNO-11 "22020097.0000000000"
*MEAS_COND_AXIS_NAME_MAGICNO-12 "25165824.0000000000"
*MEAS_COND_AXIS_NAME_MAGICNO-13 "318898176.0000000000"
*MEAS_COND_AXIS_NAME_MAGICNO-14 "1.0000000000"
*MEAS_COND_AXIS_NAME_MAGICNO-15 "20971521.0000000000"
*MEAS_COND_AXIS_NAME_MAGICNO-16 "20971521.0000000000"
*MEAS_COND_AXIS_NAME_MAGICNO-17 "20971521.0000000000"
*MEAS_COND_AXIS_NAME_MAGICNO-18 "23068673.0000000000"
*MEAS_COND_AXIS_NAME_MAGICNO-19 "23068673.0000000000"
*MEAS_COND_AXIS_NAME_MAGICNO-20 "20971521.0000000000"
*MEAS_COND_AXIS_NAME_MAGICNO-21 "20971521.0000000000"
*MEAS_COND_AXIS_NAME_MAGICNO-22 "20971521.0000000000"
*MEAS_COND_AXIS_NAME_MAGICNO-23 "25165824.0000000000"
*MEAS_COND_AXIS_NAME_MAGICNO-24 "25165824.0000000000"
*MEAS_COND_AXIS_NAME_MAGICNO-25 "285343744.0000000000"
*MEAS_COND_AXIS_NAME_MAGICNO-26 "17301505.0000000000"
*MEAS_COND_AXIS_NAME_MAGICNO-27 "20971521.0000000000"
*MEAS_COND_AXIS_NAME_MAGICNO-28 "20971521.0000000000"
*MEAS_COND_AXIS_NAME_MAGICNO-29 "20971521.0000000000"
*MEAS_COND_AXIS_NAME_MAGICNO-30 "0.0000000000"
*MEAS_COND_AXIS_OFFSET-0 "-"
*MEAS_COND_AXIS_OFFSET-1 "-0.1081000000"
*MEAS_COND_AXIS_OFFSET-2 "0.3758000000"
*MEAS_COND_AXIS_OFFSET-3 "-"
*MEAS_COND_AXIS_OFFSET-4 "-"
*MEAS_COND_AXIS_OFFSET-5 "0.3758000000"
*MEAS_COND_AXIS_OFFSET-6 "-0.4839000000"
*MEAS_COND_AXIS_OFFSET-7 "-"
*MEAS_COND_AXIS_OFFSET-8 "-"
*MEAS_COND_AXIS_OFFSET-9 "-"
*MEAS_COND_AXIS_OFFSET-10 "-"
*MEAS_COND_AXIS_OFFSET-11 "-"
*MEAS_COND_AXIS_OFFSET-12 "-"
*MEAS_COND_AXIS_OFFSET-13 "-"
*MEAS_COND_AXIS_OFFSET-14 "-"
*MEAS_COND_AXIS_OFFSET-15 "-"
*MEAS_COND_AXIS_OFFSET-16 "-"
*MEAS_COND_AXIS_OFFSET-17 "-"
*MEAS_COND_AXIS_OFFSET-18 "-"
*MEAS_COND_AXIS_OFFSET-19 "-"
*MEAS_COND_AXIS_OFFSET-20 "-"
*MEAS_COND_AXIS_OFFSET-21 "-"
*MEAS_COND_AXIS_OFFSET-22 "-"
*MEAS_COND_AXIS_OFFSET-23 "-"
*MEAS_COND_AXIS_OFFSET-24 "-"
*MEAS_COND_AXIS_OFFSET-25 "-"
*MEAS_COND_AXIS_OFFSET-26 "-"
*MEAS_COND_AXIS_OFFSET-27 "-"
*MEAS_COND_AXIS_OFFSET-28 "-"
*MEAS_COND_AXIS_OFFSET-29 "-"
*MEAS_COND_AXIS_OFFSET-30 "-"
*MEAS_COND_AXIS_POSITION-0 "0.0000000000"
*MEAS_COND_AXIS_POSITION-1 "0.0000000000"
*MEAS_COND_AXIS_POSITION-2 "0.0000000000"
*MEAS_COND_AXIS_POSITION-3 "-0.5500000000"
*MEAS_COND_AXIS_POSITION-4 "0.0000000000"
*MEAS_COND_AXIS_POSITION-5 "0.0000000000"
*MEAS_COND_AXIS_POSITION-6 "0.0000000000"
*MEAS_COND_AXIS_POSITION-7 "-0.4278800000"
*MEAS_COND_AXIS_POSITION-8 "BB"
*MEAS_COND_AXIS_POSITION-9 "0.0000000000"
*MEAS_COND_AXIS_POSITION-10 "Soller_slit_5.0deg"
*MEAS_COND_AXIS_POSITION-11 "2/3deg"
*MEAS_COND_AXIS_POSITION-12 "2.2088000000"
*MEAS_COND_AXIS_POSITION-13 "-0.4140600000"
*MEAS_COND_AXIS_POSITION-14 "0.0000000000"
*MEAS_COND_AXIS_POSITION-15 "10.0mm"
*MEAS_COND_AXIS_POSITION-16 "None"
*MEAS_COND_AXIS_POSITION-17 "Cu_K-beta"
*MEAS_COND_AXIS_POSITION-18 "13.000mm"
*MEAS_COND_AXIS_POSITION-19 "13.000mm"
*MEAS_COND_AXIS_POSITION-20 "No_unit"
*MEAS_COND_AXIS_POSITION-21 "Soller_slit_5.0deg"
*MEAS_COND_AXIS_POSITION-22 "None"
*MEAS_COND_AXIS_POSITION-23 "13.0000000000"
*MEAS_COND_AXIS_POSITION-24 "13.0000000000"
*MEAS_COND_AXIS_POSITION-25 "0.0109400000"
*MEAS_COND_AXIS_POSITION-26 "Open"
*MEAS_COND_AXIS_POSITION-27 "None"
*MEAS_COND_AXIS_POSITION-28 "None"
*MEAS_COND_AXIS_POSITION-29 "None"
*MEAS_COND_AXIS_POSITION-30 "38.0000000000"
*MEAS_COND_AXIS_UNIT-0 "deg"
*MEAS_COND_AXIS_UNIT-1 "deg"
*MEAS_COND_AXIS_UNIT-2 "deg"
*MEAS_COND_AXIS_UNIT-3 "mm"
*MEAS_COND_AXIS_UNIT-4 "deg"
*MEAS_COND_AXIS_UNIT-5 "deg"
*MEAS_COND_AXIS_UNIT-6 "deg"
*MEAS_COND_AXIS_UNIT-7 "mm"
*MEAS_COND_AXIS_UNIT-8 ""
*MEAS_COND_AXIS_UNIT-9 "pulse"
*MEAS_COND_AXIS_UNIT-10 ""
*MEAS_COND_AXIS_UNIT-11 ""
*MEAS_COND_AXIS_UNIT-12 "mm"
*MEAS_COND_AXIS_UNIT-13 "mm"
*MEAS_COND_AXIS_UNIT-14 ""
*MEAS_COND_AXIS_UNIT-15 ""
*MEAS_COND_AXIS_UNIT-16 ""
*MEAS_COND_AXIS_UNIT-17 ""
*MEAS_COND_AXIS_UNIT-18 ""
*MEAS_COND_AXIS_UNIT-19 ""
*MEAS_COND_AXIS_UNIT-20 ""
*MEAS_COND_AXIS_UNIT-21 ""
*MEAS_COND_AXIS_UNIT-22 ""
*MEAS_COND_AXIS_UNIT-23 "mm"
*MEAS_COND_AXIS_UNIT-24 "mm"
*MEAS_COND_AXIS_UNIT-25 "mm"
*MEAS_COND_AXIS_UNIT-26 ""
*MEAS_COND_AXIS_UNIT-27 ""
*MEAS_COND_AXIS_UNIT-28 ""
*MEAS_COND_AXIS_UNIT-29 ""
*MEAS_COND_AXIS_UNIT-30 "div"
*MEAS_COND_COUNTER_CNTLOSS_CORR "0.0000000000"
*MEAS_COND_COUNTER_PHABASE "38.0000000000"
*MEAS_COND_COUNTER_PHAWINDOW "16.0000000000"
*MEAS_COND_COUNTER_PHA_UNIT "div"
*MEAS_COND_COUNTER_TAUDIFF "30.0000000000"
*MEAS_COND_COUNTER_TAUINT "0.0000000000"
*MEAS_COND_IRRADIATION_MODE "OFF"
*MEAS_COND_IRRADIATION_WIDTH ""
*MEAS_COND_OPT_ATTR "集中法"
*MEAS_COND_OPT_NAME "@集中法"
*MEAS_COND_UNSYMMETRIC_MODE "OFF"
*MEAS_COND_XG_CURRENT "30.0000000000"
*MEAS_COND_XG_VOLTAGE "40.0000000000"
*MEAS_COND_XG_WAVE_TYPE "Ka"
*MEAS_DATA_COUNT "5001.0000000000"
*MEAS_SCAN_AXIS_X "2θ/θ"
*MEAS_SCAN_AXIS_X_INTERNAL "TwoThetaTheta"
*MEAS_SCAN_END_TIME "07/21/21 16:58:12"
*MEAS_SCAN_MODE "CONTINUOUS"
*MEAS_SCAN_MONITOR "0"
*MEAS_SCAN_RESOLUTION_X "0.0002"
*MEAS_SCAN_SPEED "2.5"
*MEAS_SCAN_SPEED_UNIT "deg/min"
*MEAS_SCAN_START "20.0000000000"
*MEAS_SCAN_START_TIME "07/21/21 16:36:48"
*MEAS_SCAN_STEP "0.0100000000"
*MEAS_SCAN_STOP "70.0000000000"
*MEAS_SCAN_UNIT_X "deg"
*MEAS_SCAN_UNIT_Y "counts"
*RAS_HEADER_END
*RAS_INT_START
20.0000 608.0000 1.0000
20.0100 555.0000 1.0000
20.0200 555.0000 1.0000
20.0300 580.0000 1.0000
20.0400 564.0000 1.0000
20.0500 592.0000 1.0000
20.0600 572.0000 1.0000
20.0700 571.0000 1.0000
20.0800 606.0000 1.0000
20.0900 543.0000 1.0000
20.1000 596.0000 1.0000
20.1100 573.0000 1.0000
20.1200 557.0000 1.0000
20.1300 600.0000 1.0000
20.1400 588.0000 1.0000
20.1500 587.0000 1.0000
20.1600 568.0000 1.0000
20.1700 558.0000 1.0000
20.1800 569.0000 1.0000
20.1900 568.0000 1.0000
20.2000 584.0000 1.0000
20.2100 562.0000 1.0000
20.2200 610.0000 1.0000
20.2300 578.0000 1.0000
20.2400 562.0000 1.0000
20.2500 556.0000 1.0000
20.2600 546.0000 1.0000
20.2700 555.0000 1.0000
20.2800 564.0000 1.0000
20.2900 583.0000 1.0000
20.3000 555.0000 1.0000
20.3100 584.0000 1.0000
20.3200 572.0000 1.0000
20.3300 582.0000 1.0000
20.3400 572.0000 1.0000
20.3500 571.0000 1.0000
20.3600 558.0000 1.0000
20.3700 594.0000 1.0000
20.3800 563.0000 1.0000
20.3900 551.0000 1.0000
20.4000 552.0000 1.0000
20.4100 559.0000 1.0000
20.4200 583.0000 1.0000
20.4300 617.0000 1.0000
20.4400 589.0000 1.0000
20.4500 580.0000 1.0000
20.4600 573.0000 1.0000
20.4700 595.0000 1.0000
20.4800 586.0000 1.0000
20.4900 578.0000 1.0000
20.5000 572.0000 1.0000
20.5100 567.0000 1.0000
20.5200 598.0000 1.0000
20.5300 574.0000 1.0000
20.5400 604.0000 1.0000
20.5500 581.0000 1.0000
20.5600 584.0000 1.0000
20.5700 539.0000 1.0000
20.5800 584.0000 1.0000
20.5900 573.0000 1.0000
20.6000 597.0000 1.0000
20.6100 591.0000 1.0000
20.6200 560.0000 1.0000
20.6300 565.0000 1.0000
20.6400 600.0000 1.0000
20.6500 579.0000 1.0000
20.6600 591.0000 1.0000
20.6700 563.0000 1.0000
20.6800 566.0000 1.0000
20.6900 566.0000 1.0000
20.7000 552.0000 1.0000
20.7100 589.0000 1.0000
20.7200 563.0000 1.0000
20.7300 548.0000 1.0000
20.7400 561.0000 1.0000
20.7500 563.0000 1.0000
20.7600 556.0000 1.0000
20.7700 547.0000 1.0000
20.7800 566.0000 1.0000
20.7900 598.0000 1.0000
20.8000 597.0000 1.0000
20.8100 601.0000 1.0000
20.8200 586.0000 1.0000
20.8300 559.0000 1.0000
20.8400 562.0000 1.0000
20.8500 580.0000 1.0000
20.8600 597.0000 1.0000
20.8700 577.0000 1.0000
20.8800 575.0000 1.0000
20.8900 562.0000 1.0000
20.9000 589.0000 1.0000
20.9100 612.0000 1.0000
20.9200 600.0000 1.0000
20.9300 608.0000 1.0000
20.9400 570.0000 1.0000
20.9500 542.0000 1.0000
20.9600 581.0000 1.0000
20.9700 521.0000 1.0000
20.9800 591.0000 1.0000
20.9900 554.0000 1.0000
21.0000 554.0000 1.0000
21.0100 554.0000 1.0000
21.0200 542.0000 1.0000
21.0300 583.0000 1.0000
21.0400 606.0000 1.0000
21.0500 578.0000 1.0000
21.0600 563.0000 1.0000
21.0700 617.0000 1.0000
21.0800 550.0000 1.0000
21.0900 548.0000 1.0000
21.1000 582.0000 1.0000
21.1100 579.0000 1.0000
21.1200 570.0000 1.0000
21.1300 570.0000 1.0000
21.1400 577.0000 1.0000
21.1500 583.0000 1.0000
21.1600 602.0000 1.0000
21.1700 560.0000 1.0000
21.1800 578.0000 1.0000
21.1900 564.0000 1.0000
21.2000 586.0000 1.0000
21.2100 573.0000 1.0000
21.2200 558.0000 1.0000
21.2300 552.0000 1.0000
21.2400 575.0000 1.0000
21.2500 582.0000 1.0000
21.2600 576.0000 1.0000
21.2700 584.0000 1.0000
21.2800 621.0000 1.0000
21.2900 576.0000 1.0000
21.3000 582.0000 1.0000
21.3100 626.0000 1.0000
21.3200 599.0000 1.0000
21.3300 576.0000 1.0000
21.3400 554.0000 1.0000
21.3500 578.0000 1.0000
21.3600 586.0000 1.0000
21.3700 572.0000 1.0000
21.3800 569.0000 1.0000
21.3900 561.0000 1.0000
21.4000 570.0000 1.0000
21.4100 582.0000 1.0000
21.4200 596.0000 1.0000
21.4300 560.0000 1.0000
21.4400 586.0000 1.0000
21.4500 582.0000 1.0000
21.4600 610.0000 1.0000
21.4700 553.0000 1.0000
21.4800 559.0000 1.0000
21.4900 573.0000 1.0000
21.5000 578.0000 1.0000
21.5100 588.0000 1.0000
21.5200 595.0000 1.0000
21.5300 565.0000 1.0000
21.5400 603.0000 1.0000
21.5500 581.0000 1.0000
21.5600 572.0000 1.0000
21.5700 578.0000 1.0000
21.5800 582.0000 1.0000
21.5900 596.0000 1.0000
21.6000 575.0000 1.0000
21.6100 612.0000 1.0000
21.6200 550.0000 1.0000
21.6300 610.0000 1.0000
21.6400 589.0000 1.0000
21.6500 595.0000 1.0000
21.6600 566.0000 1.0000
21.6700 591.0000 1.0000
21.6800 564.0000 1.0000
21.6900 582.0000 1.0000
21.7000 575.0000 1.0000
21.7100 590.0000 1.0000
21.7200 602.0000 1.0000
21.7300 606.0000 1.0000
21.7400 594.0000 1.0000
21.7500 584.0000 1.0000
21.7600 603.0000 1.0000
21.7700 590.0000 1.0000
21.7800 542.0000 1.0000
21.7900 562.0000 1.0000
21.8000 565.0000 1.0000
21.8100 581.0000 1.0000
21.8200 592.0000 1.0000
21.8300 588.0000 1.0000
21.8400 556.0000 1.0000
21.8500 580.0000 1.0000
21.8600 556.0000 1.0000
21.8700 561.0000 1.0000
21.8800 595.0000 1.0000
21.8900 552.0000 1.0000
21.9000 581.0000 1.0000
21.9100 555.0000 1.0000
21.9200 561.0000 1.0000
21.9300 587.0000 1.0000
21.9400 559.0000 1.0000
21.9500 590.0000 1.0000
21.9600 552.0000 1.0000
21.9700 559.0000 1.0000
21.9800 593.0000 1.0000
21.9900 536.0000 1.0000
22.0000 554.0000 1.0000
22.0100 615.0000 1.0000
22.0200 560.0000 1.0000
22.0300 599.0000 1.0000
22.0400 570.0000 1.0000
22.0500 572.0000 1.0000
22.0600 554.0000 1.0000
22.0700 568.0000 1.0000
22.0800 573.0000 1.0000
22.0900 577.0000 1.0000
22.1000 564.0000 1.0000
22.1100 585.0000 1.0000
22.1200 603.0000 1.0000
22.1300 586.0000 1.0000
22.1400 565.0000 1.0000
22.1500 575.0000 1.0000
22.1600 580.0000 1.0000
22.1700 584.0000 1.0000
22.1800 558.0000 1.0000
22.1900 543.0000 1.0000
22.2000 531.0000 1.0000
22.2100 570.0000 1.0000
22.2200 572.0000 1.0000
22.2300 552.0000 1.0000
22.2400 585.0000 1.0000
22.2500 605.0000 1.0000
22.2600 550.0000 1.0000
22.2700 584.0000 1.0000
22.2800 568.0000 1.0000
22.2900 609.0000 1.0000
22.3000 600.0000 1.0000
22.3100 564.0000 1.0000
22.3200 594.0000 1.0000
22.3300 590.0000 1.0000
22.3400 560.0000 1.0000
22.3500 589.0000 1.0000
22.3600 603.0000 1.0000
22.3700 596.0000 1.0000
22.3800 601.0000 1.0000
22.3900 561.0000 1.0000
22.4000 618.0000 1.0000
22.4100 587.0000 1.0000
22.4200 579.0000 1.0000
22.4300 593.0000 1.0000
22.4400 579.0000 1.0000
22.4500 540.0000 1.0000
22.4600 557.0000 1.0000
22.4700 538.0000 1.0000
22.4800 597.0000 1.0000
22.4900 646.0000 1.0000
22.5000 572.0000 1.0000
22.5100 590.0000 1.0000
22.5200 601.0000 1.0000
22.5300 578.0000 1.0000
22.5400 581.0000 1.0000
22.5500 595.0000 1.0000
22.5600 600.0000 1.0000
22.5700 584.0000 1.0000
22.5800 581.0000 1.0000
22.5900 569.0000 1.0000
22.6000 556.0000 1.0000
22.6100 577.0000 1.0000
22.6200 589.0000 1.0000
22.6300 615.0000 1.0000
22.6400 657.0000 1.0000
22.6500 601.0000 1.0000
22.6600 624.0000 1.0000
22.6700 599.0000 1.0000
22.6800 591.0000 1.0000
22.6900 557.0000 1.0000
22.7000 536.0000 1.0000
22.7100 581.0000 1.0000
22.7200 578.0000 1.0000
22.7300 580.0000 1.0000
22.7400 543.0000 1.0000
22.7500 566.0000 1.0000
22.7600 577.0000 1.0000
22.7700 571.0000 1.0000
22.7800 606.0000 1.0000
22.7900 564.0000 1.0000
22.8000 620.0000 1.0000
22.8100 605.0000 1.0000
22.8200 579.0000 1.0000
22.8300 541.0000 1.0000
22.8400 613.0000 1.0000
22.8500 639.0000 1.0000
22.8600 607.0000 1.0000
22.8700 573.0000 1.0000
22.8800 620.0000 1.0000
22.8900 551.0000 1.0000
22.9000 578.0000 1.0000
22.9100 583.0000 1.0000
22.9200 543.0000 1.0000
22.9300 586.0000 1.0000
22.9400 555.0000 1.0000
22.9500 539.0000 1.0000
22.9600 570.0000 1.0000
22.9700 575.0000 1.0000
22.9800 610.0000 1.0000
22.9900 583.0000 1.0000
23.0000 572.0000 1.0000
23.0100 568.0000 1.0000
23.0200 596.0000 1.0000
23.0300 585.0000 1.0000
23.0400 572.0000 1.0000
23.0500 563.0000 1.0000
23.0600 592.0000 1.0000
23.0700 565.0000 1.0000
23.0800 579.0000 1.0000
23.0900 575.0000 1.0000
23.1000 603.0000 1.0000
23.1100 610.0000 1.0000
23.1200 599.0000 1.0000
23.1300 604.0000 1.0000
23.1400 598.0000 1.0000
23.1500 555.0000 1.0000
23.1600 565.0000 1.0000
23.1700 611.0000 1.0000
23.1800 637.0000 1.0000
23.1900 587.0000 1.0000
23.2000 569.0000 1.0000
23.2100 598.0000 1.0000
23.2200 599.0000 1.0000
23.2300 599.0000 1.0000
23.2400 579.0000 1.0000
23.2500 598.0000 1.0000
23.2600 607.0000 1.0000
23.2700 576.0000 1.0000
23.2800 573.0000 1.0000
23.2900 532.0000 1.0000
23.3000 562.0000 1.0000
23.3100 576.0000 1.0000
23.3200 592.0000 1.0000
23.3300 560.0000 1.0000
23.3400 597.0000 1.0000
23.3500 614.0000 1.0000
23.3600 601.0000 1.0000
23.3700 600.0000 1.0000
23.3800 614.0000 1.0000
23.3900 577.0000 1.0000
23.4000 582.0000 1.0000
23.4100 578.0000 1.0000
23.4200 592.0000 1.0000
23.4300 591.0000 1.0000
23.4400 558.0000 1.0000
23.4500 571.0000 1.0000
23.4600 579.0000 1.0000
23.4700 605.0000 1.0000
23.4800 596.0000 1.0000
23.4900 593.0000 1.0000
23.5000 572.0000 1.0000
23.5100 544.0000 1.0000
23.5200 601.0000 1.0000
23.5300 564.0000 1.0000
23.5400 566.0000 1.0000
23.5500 555.0000 1.0000
23.5600 578.0000 1.0000
23.5700 624.0000 1.0000
23.5800 615.0000 1.0000
23.5900 601.0000 1.0000
23.6000 583.0000 1.0000
23.6100 608.0000 1.0000
23.6200 592.0000 1.0000
23.6300 593.0000 1.0000
23.6400 614.0000 1.0000
23.6500 583.0000 1.0000
23.6600 563.0000 1.0000
23.6700 589.0000 1.0000
23.6800 582.0000 1.0000
23.6900 595.0000 1.0000
23.7000 633.0000 1.0000
23.7100 586.0000 1.0000
23.7200 562.0000 1.0000
23.7300 603.0000 1.0000
23.7400 596.0000 1.0000
23.7500 587.0000 1.0000
23.7600 599.0000 1.0000
23.7700 569.0000 1.0000
23.7800 615.0000 1.0000
23.7900 601.0000 1.0000
23.8000 586.0000 1.0000
23.8100 612.0000 1.0000
23.8200 581.0000 1.0000
23.8300 599.0000 1.0000
23.8400 610.0000 1.0000
23.8500 584.0000 1.0000
23.8600 594.0000 1.0000
23.8700 583.0000 1.0000
23.8800 591.0000 1.0000
23.8900 566.0000 1.0000
23.9000 624.0000 1.0000
23.9100 620.0000 1.0000
23.9200 590.0000 1.0000
23.9300 601.0000 1.0000
23.9400 618.0000 1.0000
23.9500 566.0000 1.0000
23.9600 606.0000 1.0000
23.9700 593.0000 1.0000
23.9800 594.0000 1.0000
23.9900 568.0000 1.0000
24.0000 622.0000 1.0000
24.0100 651.0000 1.0000
24.0200 612.0000 1.0000
24.0300 577.0000 1.0000
24.0400 594.0000 1.0000
24.0500 623.0000 1.0000
24.0600 624.0000 1.0000
24.0700 603.0000 1.0000
24.0800 591.0000 1.0000
24.0900 570.0000 1.0000
24.1000 643.0000 1.0000
24.1100 613.0000 1.0000
24.1200 557.0000 1.0000
24.1300 606.0000 1.0000
24.1400 575.0000 1.0000
24.1500 616.0000 1.0000
24.1600 587.0000 1.0000
24.1700 598.0000 1.0000
24.1800 599.0000 1.0000
24.1900 606.0000 1.0000
24.2000 593.0000 1.0000
24.2100 632.0000 1.0000
24.2200 624.0000 1.0000
24.2300 584.0000 1.0000
24.2400 603.0000 1.0000
24.2500 621.0000 1.0000
24.2600 579.0000 1.0000
24.2700 593.0000 1.0000
24.2800 581.0000 1.0000
24.2900 583.0000 1.0000
24.3000 605.0000 1.0000
24.3100 616.0000 1.0000
24.3200 630.0000 1.0000
24.3300 611.0000 1.0000
24.3400 611.0000 1.0000
24.3500 609.0000 1.0000
24.3600 580.0000 1.0000
24.3700 608.0000 1.0000
24.3800 628.0000 1.0000
24.3900 566.0000 1.0000
24.4000 593.0000 1.0000
24.4100 597.0000 1.0000
24.4200 618.0000 1.0000
24.4300 604.0000 1.0000
24.4400 587.0000 1.0000
24.4500 579.0000 1.0000
24.4600 603.0000 1.0000
24.4700 617.0000 1.0000
24.4800 637.0000 1.0000
24.4900 579.0000 1.0000
24.5000 592.0000 1.0000
24.5100 596.0000 1.0000
24.5200 630.0000 1.0000
24.5300 572.0000 1.0000
24.5400 582.0000 1.0000
24.5500 596.0000 1.0000
24.5600 606.0000 1.0000
24.5700 559.0000 1.0000
24.5800 613.0000 1.0000
24.5900 588.0000 1.0000
24.6000 580.0000 1.0000
24.6100 601.0000 1.0000
24.6200 609.0000 1.0000
24.6300 591.0000 1.0000
24.6400 579.0000 1.0000
24.6500 577.0000 1.0000
24.6600 613.0000 1.0000
24.6700 598.0000 1.0000
24.6800 600.0000 1.0000
24.6900 600.0000 1.0000
24.7000 632.0000 1.0000
24.7100 630.0000 1.0000
24.7200 665.0000 1.0000
24.7300 615.0000 1.0000
24.7400 600.0000 1.0000
24.7500 619.0000 1.0000
24.7600 608.0000 1.0000
24.7700 596.0000 1.0000
24.7800 634.0000 1.0000
24.7900 608.0000 1.0000
24.8000 613.0000 1.0000
24.8100 642.0000 1.0000
24.8200 637.0000 1.0000
24.8300 614.0000 1.0000
24.8400 608.0000 1.0000
24.8500 591.0000 1.0000
24.8600 571.0000 1.0000
24.8700 610.0000 1.0000
24.8800 627.0000 1.0000
24.8900 597.0000 1.0000
24.9000 588.0000 1.0000
24.9100 598.0000 1.0000
24.9200 599.0000 1.0000
24.9300 576.0000 1.0000
24.9400 616.0000 1.0000
24.9500 618.0000 1.0000
24.9600 565.0000 1.0000
24.9700 623.0000 1.0000
24.9800 610.0000 1.0000
24.9900 630.0000 1.0000
25.0000 617.0000 1.0000
25.0100 637.0000 1.0000
25.0200 657.0000 1.0000
25.0300 612.0000 1.0000
25.0400 630.0000 1.0000
25.0500 591.0000 1.0000
25.0600 601.0000 1.0000
25.0700 652.0000 1.0000
25.0800 627.0000 1.0000
25.0900 588.0000 1.0000
25.1000 594.0000 1.0000
25.1100 615.0000 1.0000
25.1200 589.0000 1.0000
25.1300 633.0000 1.0000
25.1400 654.0000 1.0000
25.1500 646.0000 1.0000
25.1600 662.0000 1.0000
25.1700 615.0000 1.0000
25.1800 627.0000 1.0000
25.1900 667.0000 1.0000
25.2000 643.0000 1.0000
25.2100 602.0000 1.0000
25.2200 641.0000 1.0000
25.2300 602.0000 1.0000
25.2400 612.0000 1.0000
25.2500 626.0000 1.0000
25.2600 630.0000 1.0000
25.2700 639.0000 1.0000
25.2800 605.0000 1.0000
25.2900 620.0000 1.0000
25.3000 646.0000 1.0000
25.3100 619.0000 1.0000
25.3200 648.0000 1.0000
25.3300 622.0000 1.0000
25.3400 614.0000 1.0000
25.3500 634.0000 1.0000
25.3600 596.0000 1.0000
25.3700 598.0000 1.0000
25.3800 633.0000 1.0000
25.3900 597.0000 1.0000
25.4000 607.0000 1.0000
25.4100 596.0000 1.0000
25.4200 587.0000 1.0000
25.4300 630.0000 1.0000
25.4400 605.0000 1.0000
25.4500 624.0000 1.0000
25.4600 618.0000 1.0000
25.4700 586.0000 1.0000
25.4800 558.0000 1.0000
25.4900 602.0000 1.0000
25.5000 622.0000 1.0000
25.5100 630.0000 1.0000
25.5200 616.0000 1.0000
25.5300 630.0000 1.0000
25.5400 569.0000 1.0000
25.5500 600.0000 1.0000
25.5600 601.0000 1.0000
25.5700 591.0000 1.0000
25.5800 598.0000 1.0000
25.5900 590.0000 1.0000
25.6000 593.0000 1.0000
25.6100 565.0000 1.0000
25.6200 596.0000 1.0000
25.6300 624.0000 1.0000
25.6400 630.0000 1.0000
25.6500 633.0000 1.0000
25.6600 653.0000 1.0000
25.6700 615.0000 1.0000
25.6800 600.0000 1.0000
25.6900 617.0000 1.0000
25.7000 626.0000 1.0000
25.7100 595.0000 1.0000
25.7200 588.0000 1.0000
25.7300 574.0000 1.0000
25.7400 682.0000 1.0000
25.7500 617.0000 1.0000
25.7600 622.0000 1.0000
25.7700 624.0000 1.0000
25.7800 595.0000 1.0000
25.7900 606.0000 1.0000
25.8000 606.0000 1.0000
25.8100 630.0000 1.0000
25.8200 637.0000 1.0000
25.8300 586.0000 1.0000
25.8400 596.0000 1.0000
25.8500 613.0000 1.0000
25.8600 624.0000 1.0000
25.8700 599.0000 1.0000
25.8800 649.0000 1.0000
25.8900 635.0000 1.0000
25.9000 623.0000 1.0000
25.9100 629.0000 1.0000
25.9200 622.0000 1.0000
25.9300 626.0000 1.0000
25.9400 624.0000 1.0000
25.9500 583.0000 1.0000
25.9600 581.0000 1.0000
25.9700 571.0000 1.0000
25.9800 608.0000 1.0000
25.9900 638.0000 1.0000
26.0000 581.0000 1.0000
26.0100 608.0000 1.0000
26.0200 587.0000 1.0000
26.0300 629.0000 1.0000
26.0400 595.0000 1.0000
26.0500 616.0000 1.0000
26.0600 648.0000 1.0000
26.0700 612.0000 1.0000
26.0800 594.0000 1.0000
26.0900 615.0000 1.0000
26.1000 618.0000 1.0000
26.1100 633.0000 1.0000
26.1200 648.0000 1.0000
26.1300 620.0000 1.0000
26.1400 595.0000 1.0000
26.1500 638.0000 1.0000
26.1600 655.0000 1.0000
26.1700 621.0000 1.0000
26.1800 636.0000 1.0000
26.1900 622.0000 1.0000
26.2000 603.0000 1.0000
26.2100 618.0000 1.0000
26.2200 593.0000 1.0000
26.2300 617.0000 1.0000
26.2400 609.0000 1.0000
26.2500 622.0000 1.0000
26.2600 616.0000 1.0000
26.2700 626.0000 1.0000
26.2800 626.0000 1.0000
26.2900 639.0000 1.0000
26.3000 629.0000 1.0000
26.3100 633.0000 1.0000
26.3200 652.0000 1.0000
26.3300 637.0000 1.0000
26.3400 628.0000 1.0000
26.3500 622.0000 1.0000
26.3600 635.0000 1.0000
26.3700 641.0000 1.0000
26.3800 656.0000 1.0000
26.3900 637.0000 1.0000
26.4000 590.0000 1.0000
26.4100 605.0000 1.0000
26.4200 629.0000 1.0000
26.4300 613.0000 1.0000
26.4400 637.0000 1.0000
26.4500 652.0000 1.0000
26.4600 600.0000 1.0000
26.4700 632.0000 1.0000
26.4800 629.0000 1.0000
26.4900 651.0000 1.0000
26.5000 646.0000 1.0000
26.5100 638.0000 1.0000
26.5200 632.0000 1.0000
26.5300 634.0000 1.0000
26.5400 662.0000 1.0000
26.5500 640.0000 1.0000
26.5600 675.0000 1.0000
26.5700 627.0000 1.0000
26.5800 599.0000 1.0000
26.5900 623.0000 1.0000
26.6000 615.0000 1.0000
26.6100 668.0000 1.0000
26.6200 642.0000 1.0000
26.6300 616.0000 1.0000
26.6400 652.0000 1.0000
26.6500 645.0000 1.0000
26.6600 693.0000 1.0000
26.6700 654.0000 1.0000
26.6800 639.0000 1.0000
26.6900 664.0000 1.0000
26.7000 664.0000 1.0000
26.7100 673.0000 1.0000
26.7200 657.0000 1.0000
26.7300 673.0000 1.0000
26.7400 637.0000 1.0000
26.7500 635.0000 1.0000
26.7600 669.0000 1.0000
26.7700 666.0000 1.0000
26.7800 655.0000 1.0000
26.7900 730.0000 1.0000
26.8000 709.0000 1.0000
26.8100 674.0000 1.0000
26.8200 674.0000 1.0000
26.8300 683.0000 1.0000
26.8400 687.0000 1.0000
26.8500 679.0000 1.0000
26.8600 699.0000 1.0000
26.8700 703.0000 1.0000
26.8800 710.0000 1.0000
26.8900 763.0000 1.0000
26.9000 719.0000 1.0000
26.9100 769.0000 1.0000
26.9200 714.0000 1.0000
26.9300 720.0000 1.0000
26.9400 766.0000 1.0000
26.9500 775.0000 1.0000
26.9600 779.0000 1.0000
26.9700 775.0000 1.0000
26.9800 795.0000 1.0000
26.9900 809.0000 1.0000
27.0000 787.0000 1.0000
27.0100 847.0000 1.0000
27.0200 823.0000 1.0000
27.0300 816.0000 1.0000
27.0400 874.0000 1.0000
27.0500 888.0000 1.0000
27.0600 912.0000 1.0000
27.0700 935.0000 1.0000
27.0800 981.0000 1.0000
27.0900 986.0000 1.0000
27.1000 1066.0000 1.0000
27.1100 1077.0000 1.0000
27.1200 1131.0000 1.0000
27.1300 1167.0000 1.0000
27.1400 1192.0000 1.0000
27.1500 1280.0000 1.0000
27.1600 1343.0000 1.0000
27.1700 1425.0000 1.0000
27.1800 1456.0000 1.0000
27.1900 1532.0000 1.0000
27.2000 1601.0000 1.0000
27.2100 1655.0000 1.0000
27.2200 1811.0000 1.0000
27.2300 1909.0000 1.0000
27.2400 2071.0000 1.0000
27.2500 2157.0000 1.0000
27.2600 2250.0000 1.0000
27.2700 2319.0000 1.0000
27.2800 2400.0000 1.0000
27.2900 2501.0000 1.0000
27.3000 2551.0000 1.0000
27.3100 2594.0000 1.0000
27.3200 2559.0000 1.0000
27.3300 2405.0000 1.0000
27.3400 2336.0000 1.0000
27.3500 2286.0000 1.0000
27.3600 2267.0000 1.0000
27.3700 2192.0000 1.0000
27.3800 2086.0000 1.0000
27.3900 1927.0000 1.0000
27.4000 1882.0000 1.0000
27.4100 1729.0000 1.0000
27.4200 1604.0000 1.0000
27.4300 1564.0000 1.0000
27.4400 1516.0000 1.0000
27.4500 1484.0000 1.0000
27.4600 1326.0000 1.0000
27.4700 1325.0000 1.0000
27.4800 1289.0000 1.0000
27.4900 1205.0000 1.0000
27.5000 1166.0000 1.0000
27.5100 1084.0000 1.0000
27.5200 1046.0000 1.0000
27.5300 1048.0000 1.0000
27.5400 1016.0000 1.0000
27.5500 959.0000 1.0000
27.5600 875.0000 1.0000
27.5700 925.0000 1.0000
27.5800 879.0000 1.0000
27.5900 877.0000 1.0000
27.6000 870.0000 1.0000
27.6100 891.0000 1.0000
27.6200 808.0000 1.0000
27.6300 809.0000 1.0000
27.6400 801.0000 1.0000
27.6500 784.0000 1.0000
27.6600 788.0000 1.0000
27.6700 802.0000 1.0000
27.6800 806.0000 1.0000
27.6900 759.0000 1.0000
27.7000 749.0000 1.0000
27.7100 752.0000 1.0000
27.7200 737.0000 1.0000
27.7300 715.0000 1.0000
27.7400 705.0000 1.0000
27.7500 738.0000 1.0000
27.7600 736.0000 1.0000
27.7700 723.0000 1.0000
27.7800 706.0000 1.0000
27.7900 720.0000 1.0000
27.8000 713.0000 1.0000
27.8100 652.0000 1.0000
27.8200 710.0000 1.0000
27.8300 713.0000 1.0000
27.8400 713.0000 1.0000
27.8500 699.0000 1.0000
27.8600 700.0000 1.0000
27.8700 656.0000 1.0000
27.8800 622.0000 1.0000
27.8900 659.0000 1.0000
27.9000 665.0000 1.0000
27.9100 643.0000 1.0000
27.9200 692.0000 1.0000
27.9300 654.0000 1.0000
27.9400 659.0000 1.0000
27.9500 668.0000 1.0000
27.9600 675.0000 1.0000
27.9700 624.0000 1.0000
27.9800 697.0000 1.0000
27.9900 646.0000 1.0000
28.0000 636.0000 1.0000
28.0100 655.0000 1.0000
28.0200 617.0000 1.0000
28.0300 612.0000 1.0000
28.0400 661.0000 1.0000
28.0500 641.0000 1.0000
28.0600 608.0000 1.0000
28.0700 633.0000 1.0000
28.0800 624.0000 1.0000
28.0900 672.0000 1.0000
28.1000 603.0000 1.0000
28.1100 615.0000 1.0000
28.1200 592.0000 1.0000
28.1300 593.0000 1.0000
28.1400 569.0000 1.0000
28.1500 634.0000 1.0000
28.1600 650.0000 1.0000
28.1700 588.0000 1.0000
28.1800 630.0000 1.0000
28.1900 595.0000 1.0000
28.2000 576.0000 1.0000
28.2100 595.0000 1.0000
28.2200 641.0000 1.0000
28.2300 655.0000 1.0000
28.2400 618.0000 1.0000
28.2500 643.0000 1.0000
28.2600 639.0000 1.0000
28.2700 628.0000 1.0000
28.2800 631.0000 1.0000
28.2900 621.0000 1.0000
28.3000 565.0000 1.0000
28.3100 641.0000 1.0000
28.3200 618.0000 1.0000
28.3300 626.0000 1.0000
28.3400 627.0000 1.0000
28.3500 594.0000 1.0000
28.3600 595.0000 1.0000
28.3700 587.0000 1.0000
28.3800 611.0000 1.0000
28.3900 631.0000 1.0000
28.4000 625.0000 1.0000
28.4100 591.0000 1.0000
28.4200 590.0000 1.0000
28.4300 629.0000 1.0000
28.4400 585.0000 1.0000
28.4500 611.0000 1.0000
28.4600 621.0000 1.0000
28.4700 597.0000 1.0000
28.4800 613.0000 1.0000
28.4900 622.0000 1.0000
28.5000 611.0000 1.0000
28.5100 617.0000 1.0000
28.5200 664.0000 1.0000
28.5300 629.0000 1.0000
28.5400 597.0000 1.0000
28.5500 599.0000 1.0000
28.5600 643.0000 1.0000
28.5700 600.0000 1.0000
28.5800 603.0000 1.0000
28.5900 625.0000 1.0000
28.6000 575.0000 1.0000
28.6100 594.0000 1.0000
28.6200 585.0000 1.0000
28.6300 619.0000 1.0000
28.6400 635.0000 1.0000
28.6500 583.0000 1.0000
28.6600 594.0000 1.0000
28.6700 570.0000 1.0000
28.6800 583.0000 1.0000
28.6900 587.0000 1.0000
28.7000 594.0000 1.0000
28.7100 580.0000 1.0000
28.7200 587.0000 1.0000
28.7300 610.0000 1.0000
28.7400 578.0000 1.0000
28.7500 569.0000 1.0000
28.7600 575.0000 1.0000
28.7700 606.0000 1.0000
28.7800 601.0000 1.0000
28.7900 575.0000 1.0000
28.8000 622.0000 1.0000
28.8100 642.0000 1.0000
28.8200 603.0000 1.0000
28.8300 611.0000 1.0000
28.8400 592.0000 1.0000
28.8500 615.0000 1.0000
28.8600 571.0000 1.0000
28.8700 590.0000 1.0000
28.8800 591.0000 1.0000
28.8900 597.0000 1.0000
28.9000 609.0000 1.0000
28.9100 613.0000 1.0000
28.9200 587.0000 1.0000
28.9300 593.0000 1.0000
28.9400 587.0000 1.0000
28.9500 598.0000 1.0000
28.9600 599.0000 1.0000
28.9700 604.0000 1.0000
28.9800 574.0000 1.0000
28.9900 568.0000 1.0000
29.0000 564.0000 1.0000
29.0100 617.0000 1.0000
29.0200 632.0000 1.0000
29.0300 549.0000 1.0000
29.0400 562.0000 1.0000
29.0500 587.0000 1.0000
29.0600 561.0000 1.0000
29.0700 628.0000 1.0000
29.0800 554.0000 1.0000
29.0900 590.0000 1.0000
29.1000 567.0000 1.0000
29.1100 595.0000 1.0000
29.1200 579.0000 1.0000
29.1300 609.0000 1.0000
29.1400 561.0000 1.0000
29.1500 596.0000 1.0000
29.1600 563.0000 1.0000
29.1700 586.0000 1.0000
29.1800 589.0000 1.0000
29.1900 613.0000 1.0000
29.2000 628.0000 1.0000
29.2100 587.0000 1.0000
29.2200 573.0000 1.0000
29.2300 543.0000 1.0000
29.2400 575.0000 1.0000
29.2500 615.0000 1.0000
29.2600 529.0000 1.0000
29.2700 547.0000 1.0000
29.2800 578.0000 1.0000
29.2900 589.0000 1.0000
29.3000 583.0000 1.0000
29.3100 574.0000 1.0000
29.3200 571.0000 1.0000
29.3300 530.0000 1.0000
29.3400 577.0000 1.0000
29.3500 548.0000 1.0000
29.3600 559.0000 1.0000
29.3700 557.0000 1.0000
29.3800 596.0000 1.0000
29.3900 576.0000 1.0000
29.4000 602.0000 1.0000
29.4100 580.0000 1.0000
29.4200 570.0000 1.0000
29.4300 585.0000 1.0000
29.4400 636.0000 1.0000
29.4500 586.0000 1.0000
29.4600 595.0000 1.0000
29.4700 564.0000 1.0000
29.4800 590.0000 1.0000
29.4900 602.0000 1.0000
29.5000 594.0000 1.0000
29.5100 568.0000 1.0000
29.5200 566.0000 1.0000
29.5300 580.0000 1.0000
29.5400 597.0000 1.0000
29.5500 578.0000 1.0000
29.5600 555.0000 1.0000
29.5700 584.0000 1.0000
29.5800 584.0000 1.0000
29.5900 574.0000 1.0000
29.6000 537.0000 1.0000
29.6100 582.0000 1.0000
29.6200 613.0000 1.0000
29.6300 536.0000 1.0000
29.6400 585.0000 1.0000
29.6500 573.0000 1.0000
29.6600 568.0000 1.0000
29.6700 605.0000 1.0000
29.6800 561.0000 1.0000
29.6900 581.0000 1.0000
29.7000 570.0000 1.0000
29.7100 596.0000 1.0000
29.7200 589.0000 1.0000
29.7300 574.0000 1.0000
29.7400 554.0000 1.0000
29.7500 540.0000 1.0000
29.7600 585.0000 1.0000
29.7700 536.0000 1.0000
29.7800 531.0000 1.0000
29.7900 526.0000 1.0000
29.8000 546.0000 1.0000
29.8100 590.0000 1.0000
29.8200 555.0000 1.0000
29.8300 592.0000 1.0000
29.8400 577.0000 1.0000
29.8500 571.0000 1.0000
29.8600 550.0000 1.0000
29.8700 577.0000 1.0000
29.8800 569.0000 1.0000
29.8900 595.0000 1.0000
29.9000 576.0000 1.0000
29.9100 562.0000 1.0000
29.9200 592.0000 1.0000
29.9300 567.0000 1.0000
29.9400 593.0000 1.0000
29.9500 541.0000 1.0000
29.9600 553.0000 1.0000
29.9700 547.0000 1.0000
29.9800 543.0000 1.0000
29.9900 553.0000 1.0000
30.0000 544.0000 1.0000
30.0100 538.0000 1.0000
30.0200 587.0000 1.0000
30.0300 573.0000 1.0000
30.0400 554.0000 1.0000
30.0500 554.0000 1.0000
30.0600 531.0000 1.0000
30.0700 552.0000 1.0000
30.0800 611.0000 1.0000
30.0900 533.0000 1.0000
30.1000 523.0000 1.0000
30.1100 564.0000 1.0000
30.1200 588.0000 1.0000
30.1300 555.0000 1.0000
30.1400 586.0000 1.0000
30.1500 559.0000 1.0000
30.1600 590.0000 1.0000
30.1700 594.0000 1.0000
30.1800 553.0000 1.0000
30.1900 578.0000 1.0000
30.2000 535.0000 1.0000
30.2100 563.0000 1.0000
30.2200 573.0000 1.0000
30.2300 572.0000 1.0000
30.2400 604.0000 1.0000
30.2500 566.0000 1.0000
30.2600 554.0000 1.0000
30.2700 554.0000 1.0000
30.2800 564.0000 1.0000
30.2900 552.0000 1.0000
30.3000 597.0000 1.0000
30.3100 590.0000 1.0000
30.3200 572.0000 1.0000
30.3300 567.0000 1.0000
30.3400 557.0000 1.0000
30.3500 553.0000 1.0000
30.3600 571.0000 1.0000
30.3700 539.0000 1.0000
30.3800 558.0000 1.0000
30.3900 572.0000 1.0000
30.4000 537.0000 1.0000
30.4100 552.0000 1.0000
30.4200 519.0000 1.0000
30.4300 551.0000 1.0000
30.4400 563.0000 1.0000
30.4500 543.0000 1.0000
30.4600 561.0000 1.0000
30.4700 549.0000 1.0000
30.4800 572.0000 1.0000
30.4900 560.0000 1.0000
30.5000 592.0000 1.0000
30.5100 560.0000 1.0000
30.5200 532.0000 1.0000
30.5300 534.0000 1.0000
30.5400 544.0000 1.0000
30.5500 571.0000 1.0000
30.5600 544.0000 1.0000
30.5700 551.0000 1.0000
30.5800 553.0000 1.0000
30.5900 558.0000 1.0000
30.6000 575.0000 1.0000
30.6100 550.0000 1.0000
30.6200 544.0000 1.0000
30.6300 571.0000 1.0000
30.6400 567.0000 1.0000
30.6500 515.0000 1.0000
30.6600 513.0000 1.0000
30.6700 573.0000 1.0000
30.6800 550.0000 1.0000
30.6900 556.0000 1.0000
30.7000 575.0000 1.0000
30.7100 546.0000 1.0000
30.7200 570.0000 1.0000
30.7300 562.0000 1.0000
30.7400 585.0000 1.0000
30.7500 578.0000 1.0000
30.7600 566.0000 1.0000
30.7700 550.0000 1.0000
30.7800 558.0000 1.0000
30.7900 553.0000 1.0000
30.8000 548.0000 1.0000
30.8100 589.0000 1.0000
30.8200 546.0000 1.0000
30.8300 542.0000 1.0000
30.8400 552.0000 1.0000
30.8500 564.0000 1.0000
30.8600 571.0000 1.0000
30.8700 544.0000 1.0000
30.8800 565.0000 1.0000
30.8900 551.0000 1.0000
30.9000 549.0000 1.0000
30.9100 528.0000 1.0000
30.9200 537.0000 1.0000
30.9300 525.0000 1.0000
30.9400 569.0000 1.0000
30.9500 541.0000 1.0000
30.9600 556.0000 1.0000
30.9700 582.0000 1.0000
30.9800 540.0000 1.0000
30.9900 549.0000 1.0000
31.0000 537.0000 1.0000
31.0100 562.0000 1.0000
31.0200 528.0000 1.0000
31.0300 557.0000 1.0000
31.0400 527.0000 1.0000
31.0500 548.0000 1.0000
31.0600 586.0000 1.0000
31.0700 555.0000 1.0000
31.0800 554.0000 1.0000
31.0900 553.0000 1.0000
31.1000 543.0000 1.0000
31.1100 520.0000 1.0000
31.1200 554.0000 1.0000
31.1300 570.0000 1.0000
31.1400 548.0000 1.0000
31.1500 548.0000 1.0000
31.1600 532.0000 1.0000
31.1700 550.0000 1.0000
31.1800 593.0000 1.0000
31.1900 564.0000 1.0000
31.2000 588.0000 1.0000
31.2100 560.0000 1.0000
31.2200 519.0000 1.0000
31.2300 553.0000 1.0000
31.2400 567.0000 1.0000
31.2500 546.0000 1.0000
31.2600 551.0000 1.0000
31.2700 539.0000 1.0000
31.2800 573.0000 1.0000
31.2900 566.0000 1.0000
31.3000 574.0000 1.0000
31.3100 580.0000 1.0000
31.3200 553.0000 1.0000
31.3300 536.0000 1.0000
31.3400 556.0000 1.0000
31.3500 546.0000 1.0000
31.3600 515.0000 1.0000
31.3700 528.0000 1.0000
31.3800 532.0000 1.0000
31.3900 560.0000 1.0000
31.4000 544.0000 1.0000
31.4100 533.0000 1.0000
31.4200 509.0000 1.0000
31.4300 534.0000 1.0000
31.4400 532.0000 1.0000
31.4500 603.0000 1.0000
31.4600 526.0000 1.0000
31.4700 543.0000 1.0000
31.4800 523.0000 1.0000
31.4900 478.0000 1.0000
31.5000 534.0000 1.0000
31.5100 530.0000 1.0000
31.5200 532.0000 1.0000
31.5300 496.0000 1.0000
31.5400 515.0000 1.0000
31.5500 568.0000 1.0000
31.5600 559.0000 1.0000
31.5700 528.0000 1.0000
31.5800 557.0000 1.0000
31.5900 538.0000 1.0000
31.6000 513.0000 1.0000
31.6100 517.0000 1.0000
31.6200 531.0000 1.0000
31.6300 548.0000 1.0000
31.6400 463.0000 1.0000
31.6500 544.0000 1.0000
31.6600 541.0000 1.0000
31.6700 553.0000 1.0000
31.6800 540.0000 1.0000
31.6900 534.0000 1.0000
31.7000 563.0000 1.0000
31.7100 534.0000 1.0000
31.7200 565.0000 1.0000
31.7300 520.0000 1.0000
31.7400 550.0000 1.0000
31.7500 545.0000 1.0000
31.7600 516.0000 1.0000
31.7700 511.0000 1.0000
31.7800 508.0000 1.0000
31.7900 496.0000 1.0000
31.8000 549.0000 1.0000
31.8100 552.0000 1.0000
31.8200 541.0000 1.0000
31.8300 508.0000 1.0000
31.8400 523.0000 1.0000
31.8500 567.0000 1.0000
31.8600 569.0000 1.0000
31.8700 540.0000 1.0000
31.8800 546.0000 1.0000
31.8900 574.0000 1.0000
31.9000 553.0000 1.0000
31.9100 591.0000 1.0000
31.9200 544.0000 1.0000
31.9300 530.0000 1.0000
31.9400 551.0000 1.0000
31.9500 547.0000 1.0000
31.9600 529.0000 1.0000
31.9700 557.0000 1.0000
31.9800 571.0000 1.0000
31.9900 547.0000 1.0000
32.0000 562.0000 1.0000
32.0100 552.0000 1.0000
32.0200 583.0000 1.0000
32.0300 534.0000 1.0000
32.0400 563.0000 1.0000
32.0500 548.0000 1.0000
32.0600 556.0000 1.0000
32.0700 562.0000 1.0000
32.0800 579.0000 1.0000
32.0900 534.0000 1.0000
32.1000 547.0000 1.0000
32.1100 550.0000 1.0000
32.1200 537.0000 1.0000
32.1300 522.0000 1.0000
32.1400 529.0000 1.0000
32.1500 523.0000 1.0000
32.1600 535.0000 1.0000
32.1700 464.0000 1.0000
32.1800 490.0000 1.0000
32.1900 532.0000 1.0000
32.2000 550.0000 1.0000
32.2100 513.0000 1.0000
32.2200 563.0000 1.0000
32.2300 534.0000 1.0000
32.2400 522.0000 1.0000
32.2500 500.0000 1.0000
32.2600 515.0000 1.0000
32.2700 526.0000 1.0000
32.2800 496.0000 1.0000
32.2900 538.0000 1.0000
32.3000 531.0000 1.0000
32.3100 559.0000 1.0000
32.3200 539.0000 1.0000
32.3300 517.0000 1.0000
32.3400 508.0000 1.0000
32.3500 531.0000 1.0000
32.3600 507.0000 1.0000
32.3700 500.0000 1.0000
32.3800 522.0000 1.0000
32.3900 519.0000 1.0000
32.4000 544.0000 1.0000
32.4100 522.0000 1.0000
32.4200 549.0000 1.0000
32.4300 533.0000 1.0000
32.4400 487.0000 1.0000
32.4500 506.0000 1.0000
32.4600 504.0000 1.0000
32.4700 511.0000 1.0000
32.4800 528.0000 1.0000
32.4900 532.0000 1.0000
32.5000 536.0000 1.0000
32.5100 497.0000 1.0000
32.5200 522.0000 1.0000
32.5300 547.0000 1.0000
32.5400 511.0000 1.0000
32.5500 520.0000 1.0000
32.5600 514.0000 1.0000
32.5700 523.0000 1.0000
32.5800 516.0000 1.0000
32.5900 560.0000 1.0000
32.6000 510.0000 1.0000
32.6100 552.0000 1.0000
32.6200 551.0000 1.0000
32.6300 532.0000 1.0000
32.6400 525.0000 1.0000
32.6500 544.0000 1.0000
32.6600 488.0000 1.0000
32.6700 522.0000 1.0000
32.6800 526.0000 1.0000
32.6900 536.0000 1.0000
32.7000 532.0000 1.0000
32.7100 530.0000 1.0000
32.7200 470.0000 1.0000
32.7300 538.0000 1.0000
32.7400 515.0000 1.0000
32.7500 503.0000 1.0000
32.7600 511.0000 1.0000
32.7700 516.0000 1.0000
32.7800 504.0000 1.0000
32.7900 475.0000 1.0000
32.8000 514.0000 1.0000
32.8100 530.0000 1.0000
32.8200 534.0000 1.0000
32.8300 521.0000 1.0000
32.8400 541.0000 1.0000
32.8500 492.0000 1.0000
32.8600 501.0000 1.0000
32.8700 534.0000 1.0000
32.8800 541.0000 1.0000
32.8900 516.0000 1.0000
32.9000 523.0000 1.0000
32.9100 521.0000 1.0000
32.9200 524.0000 1.0000
32.9300 503.0000 1.0000
32.9400 498.0000 1.0000
32.9500 529.0000 1.0000
32.9600 496.0000 1.0000
32.9700 521.0000 1.0000
32.9800 498.0000 1.0000
32.9900 487.0000 1.0000
33.0000 505.0000 1.0000
33.0100 489.0000 1.0000
33.0200 526.0000 1.0000
33.0300 494.0000 1.0000
33.0400 546.0000 1.0000
33.0500 514.0000 1.0000
33.0600 488.0000 1.0000
33.0700 504.0000 1.0000
33.0800 502.0000 1.0000
33.0900 488.0000 1.0000
33.1000 473.0000 1.0000
33.1100 481.0000 1.0000
33.1200 497.0000 1.0000
33.1300 493.0000 1.0000
33.1400 537.0000 1.0000
33.1500 531.0000 1.0000
33.1600 490.0000 1.0000
33.1700 495.0000 1.0000
33.1800 500.0000 1.0000
33.1900 487.0000 1.0000
33.2000 468.0000 1.0000
33.2100 500.0000 1.0000
33.2200 459.0000 1.0000
33.2300 492.0000 1.0000
33.2400 454.0000 1.0000
33.2500 522.0000 1.0000
33.2600 514.0000 1.0000
33.2700 484.0000 1.0000
33.2800 509.0000 1.0000
33.2900 475.0000 1.0000
33.3000 498.0000 1.0000
33.3100 489.0000 1.0000
33.3200 511.0000 1.0000
33.3300 502.0000 1.0000
33.3400 510.0000 1.0000
33.3500 513.0000 1.0000
33.3600 485.0000 1.0000
33.3700 504.0000 1.0000
33.3800 486.0000 1.0000
33.3900 526.0000 1.0000
33.4000 507.0000 1.0000
33.4100 502.0000 1.0000
33.4200 508.0000 1.0000
33.4300 497.0000 1.0000
33.4400 499.0000 1.0000
33.4500 507.0000 1.0000
33.4600 499.0000 1.0000
33.4700 488.0000 1.0000
33.4800 468.0000 1.0000
33.4900 471.0000 1.0000
33.5000 506.0000 1.0000
33.5100 468.0000 1.0000
33.5200 478.0000 1.0000
33.5300 497.0000 1.0000
33.5400 526.0000 1.0000
33.5500 498.0000 1.0000
33.5600 533.0000 1.0000
33.5700 490.0000 1.0000
33.5800 514.0000 1.0000
33.5900 506.0000 1.0000
33.6000 493.0000 1.0000
33.6100 479.0000 1.0000
33.6200 488.0000 1.0000
33.6300 544.0000 1.0000
33.6400 493.0000 1.0000
33.6500 542.0000 1.0000
33.6600 514.0000 1.0000
33.6700 542.0000 1.0000
33.6800 511.0000 1.0000
33.6900 510.0000 1.0000
33.7000 534.0000 1.0000
33.7100 528.0000 1.0000
33.7200 513.0000 1.0000
33.7300 557.0000 1.0000
33.7400 539.0000 1.0000
33.7500 519.0000 1.0000
33.7600 556.0000 1.0000
33.7700 566.0000 1.0000
33.7800 526.0000 1.0000
33.7900 538.0000 1.0000
33.8000 513.0000 1.0000
33.8100 523.0000 1.0000
33.8200 577.0000 1.0000
33.8300 545.0000 1.0000
33.8400 531.0000 1.0000
33.8500 542.0000 1.0000
33.8600 573.0000 1.0000
33.8700 554.0000 1.0000
33.8800 590.0000 1.0000
33.8900 555.0000 1.0000
33.9000 583.0000 1.0000
33.9100 572.0000 1.0000
33.9200 574.0000 1.0000
33.9300 538.0000 1.0000
33.9400 590.0000 1.0000
33.9500 555.0000 1.0000
33.9600 529.0000 1.0000
33.9700 569.0000 1.0000
33.9800 545.0000 1.0000
33.9900 592.0000 1.0000
34.0000 584.0000 1.0000
34.0100 540.0000 1.0000
34.0200 576.0000 1.0000
34.0300 566.0000 1.0000
34.0400 590.0000 1.0000
34.0500 616.0000 1.0000
34.0600 573.0000 1.0000
34.0700 562.0000 1.0000
34.0800 573.0000 1.0000
34.0900 595.0000 1.0000
34.1000 559.0000 1.0000
34.1100 588.0000 1.0000
34.1200 550.0000 1.0000
34.1300 557.0000 1.0000
34.1400 563.0000 1.0000
34.1500 550.0000 1.0000
34.1600 609.0000 1.0000
34.1700 593.0000 1.0000
34.1800 596.0000 1.0000
34.1900 608.0000 1.0000
34.2000 628.0000 1.0000
34.2100 605.0000 1.0000
34.2200 629.0000 1.0000
34.2300 631.0000 1.0000
34.2400 671.0000 1.0000
34.2500 658.0000 1.0000
34.2600 664.0000 1.0000
34.2700 675.0000 1.0000
34.2800 657.0000 1.0000
34.2900 700.0000 1.0000
34.3000 706.0000 1.0000
34.3100 715.0000 1.0000
34.3200 751.0000 1.0000
34.3300 801.0000 1.0000
34.3400 767.0000 1.0000
34.3500 795.0000 1.0000
34.3600 904.0000 1.0000
34.3700 971.0000 1.0000
34.3800 897.0000 1.0000
34.3900 944.0000 1.0000
34.4000 1035.0000 1.0000
34.4100 1088.0000 1.0000
34.4200 1116.0000 1.0000
34.4300 1154.0000 1.0000
34.4400 1257.0000 1.0000
34.4500 1225.0000 1.0000
34.4600 1321.0000 1.0000
34.4700 1336.0000 1.0000
34.4800 1390.0000 1.0000
34.4900 1431.0000 1.0000
34.5000 1396.0000 1.0000
34.5100 1370.0000 1.0000
34.5200 1359.0000 1.0000
34.5300 1346.0000 1.0000
34.5400 1298.0000 1.0000
34.5500 1276.0000 1.0000
34.5600 1223.0000 1.0000
34.5700 1197.0000 1.0000
34.5800 1148.0000 1.0000
34.5900 1064.0000 1.0000
34.6000 1083.0000 1.0000
34.6100 1013.0000 1.0000
34.6200 999.0000 1.0000
34.6300 943.0000 1.0000
34.6400 908.0000 1.0000
34.6500 824.0000 1.0000
34.6600 814.0000 1.0000
34.6700 787.0000 1.0000
34.6800 769.0000 1.0000
34.6900 776.0000 1.0000
34.7000 754.0000 1.0000
34.7100 718.0000 1.0000
34.7200 640.0000 1.0000
34.7300 660.0000 1.0000
34.7400 625.0000 1.0000
34.7500 672.0000 1.0000
34.7600 671.0000 1.0000
34.7700 643.0000 1.0000
34.7800 619.0000 1.0000
34.7900 638.0000 1.0000
34.8000 607.0000 1.0000
34.8100 594.0000 1.0000
34.8200 596.0000 1.0000
34.8300 591.0000 1.0000
34.8400 546.0000 1.0000
34.8500 586.0000 1.0000
34.8600 559.0000 1.0000
34.8700 573.0000 1.0000
34.8800 520.0000 1.0000
34.8900 550.0000 1.0000
34.9000 537.0000 1.0000
34.9100 531.0000 1.0000
34.9200 569.0000 1.0000
34.9300 544.0000 1.0000
34.9400 515.0000 1.0000
34.9500 511.0000 1.0000
34.9600 511.0000 1.0000
34.9700 511.0000 1.0000
34.9800 509.0000 1.0000
34.9900 508.0000 1.0000
35.0000 496.0000 1.0000
35.0100 463.0000 1.0000
35.0200 499.0000 1.0000
35.0300 482.0000 1.0000
35.0400 488.0000 1.0000
35.0500 510.0000 1.0000
35.0600 501.0000 1.0000
35.0700 481.0000 1.0000
35.0800 466.0000 1.0000
35.0900 477.0000 1.0000
35.1000 502.0000 1.0000
35.1100 476.0000 1.0000
35.1200 482.0000 1.0000
35.1300 468.0000 1.0000
35.1400 467.0000 1.0000
35.1500 456.0000 1.0000
35.1600 490.0000 1.0000
35.1700 436.0000 1.0000
35.1800 473.0000 1.0000
35.1900 464.0000 1.0000
35.2000 428.0000 1.0000
35.2100 447.0000 1.0000
35.2200 439.0000 1.0000
35.2300 447.0000 1.0000
35.2400 460.0000 1.0000
35.2500 464.0000 1.0000
35.2600 455.0000 1.0000
35.2700 439.0000 1.0000
35.2800 475.0000 1.0000
35.2900 466.0000 1.0000
35.3000 477.0000 1.0000
35.3100 500.0000 1.0000
35.3200 460.0000 1.0000
35.3300 458.0000 1.0000
35.3400 448.0000 1.0000
35.3500 441.0000 1.0000
35.3600 391.0000 1.0000
35.3700 434.0000 1.0000
35.3800 455.0000 1.0000
35.3900 456.0000 1.0000
35.4000 477.0000 1.0000
35.4100 460.0000 1.0000
35.4200 414.0000 1.0000
35.4300 427.0000 1.0000
35.4400 458.0000 1.0000
35.4500 442.0000 1.0000
35.4600 447.0000 1.0000
35.4700 430.0000 1.0000
35.4800 497.0000 1.0000
35.4900 455.0000 1.0000
35.5000 443.0000 1.0000
35.5100 424.0000 1.0000
35.5200 441.0000 1.0000
35.5300 449.0000 1.0000
35.5400 442.0000 1.0000
35.5500 429.0000 1.0000
35.5600 431.0000 1.0000
35.5700 437.0000 1.0000
35.5800 417.0000 1.0000
35.5900 433.0000 1.0000
35.6000 442.0000 1.0000
35.6100 438.0000 1.0000
35.6200 437.0000 1.0000
35.6300 419.0000 1.0000
35.6400 441.0000 1.0000
35.6500 421.0000 1.0000
35.6600 425.0000 1.0000
35.6700 420.0000 1.0000
35.6800 431.0000 1.0000
35.6900 443.0000 1.0000
35.7000 423.0000 1.0000
35.7100 426.0000 1.0000
35.7200 426.0000 1.0000
35.7300 420.0000 1.0000
35.7400 415.0000 1.0000
35.7500 440.0000 1.0000
35.7600 458.0000 1.0000
35.7700 446.0000 1.0000
35.7800 440.0000 1.0000
35.7900 415.0000 1.0000
35.8000 396.0000 1.0000
35.8100 422.0000 1.0000
35.8200 437.0000 1.0000
35.8300 438.0000 1.0000
35.8400 432.0000 1.0000
35.8500 435.0000 1.0000
35.8600 439.0000 1.0000
35.8700 425.0000 1.0000
35.8800 418.0000 1.0000
35.8900 443.0000 1.0000
35.9000 408.0000 1.0000
35.9100 409.0000 1.0000
35.9200 398.0000 1.0000
35.9300 443.0000 1.0000
35.9400 452.0000 1.0000
35.9500 444.0000 1.0000
35.9600 416.0000 1.0000
35.9700 435.0000 1.0000
35.9800 402.0000 1.0000
35.9900 422.0000 1.0000
36.0000 407.0000 1.0000
36.0100 428.0000 1.0000
36.0200 407.0000 1.0000
36.0300 416.0000 1.0000
36.0400 409.0000 1.0000
36.0500 442.0000 1.0000
36.0600 447.0000 1.0000
36.0700 414.0000 1.0000
36.0800 418.0000 1.0000
36.0900 407.0000 1.0000
36.1000 420.0000 1.0000
36.1100 418.0000 1.0000
36.1200 413.0000 1.0000
36.1300 441.0000 1.0000
36.1400 454.0000 1.0000
36.1500 464.0000 1.0000
36.1600 447.0000 1.0000
36.1700 464.0000 1.0000
36.1800 456.0000 1.0000
36.1900 421.0000 1.0000
36.2000 474.0000 1.0000
36.2100 512.0000 1.0000
36.2200 491.0000 1.0000
36.2300 476.0000 1.0000
36.2400 472.0000 1.0000
36.2500 500.0000 1.0000
36.2600 438.0000 1.0000
36.2700 473.0000 1.0000
36.2800 498.0000 1.0000
36.2900 490.0000 1.0000
36.3000 492.0000 1.0000
36.3100 506.0000 1.0000
36.3200 553.0000 1.0000
36.3300 523.0000 1.0000
36.3400 535.0000 1.0000
36.3500 528.0000 1.0000
36.3600 526.0000 1.0000
36.3700 533.0000 1.0000
36.3800 547.0000 1.0000
36.3900 584.0000 1.0000
36.4000 553.0000 1.0000
36.4100 588.0000 1.0000
36.4200 548.0000 1.0000
36.4300 541.0000 1.0000
36.4400 521.0000 1.0000
36.4500 579.0000 1.0000
36.4600 571.0000 1.0000
36.4700 500.0000 1.0000
36.4800 500.0000 1.0000
36.4900 511.0000 1.0000
36.5000 571.0000 1.0000
36.5100 515.0000 1.0000
36.5200 496.0000 1.0000
36.5300 521.0000 1.0000
36.5400 509.0000 1.0000
36.5500 450.0000 1.0000
36.5600 495.0000 1.0000
36.5700 457.0000 1.0000
36.5800 475.0000 1.0000
36.5900 456.0000 1.0000
36.6000 458.0000 1.0000
36.6100 478.0000 1.0000
36.6200 422.0000 1.0000
36.6300 436.0000 1.0000
36.6400 451.0000 1.0000
36.6500 479.0000 1.0000
36.6600 430.0000 1.0000
36.6700 450.0000 1.0000
36.6800 440.0000 1.0000
36.6900 427.0000 1.0000
36.7000 408.0000 1.0000
36.7100 453.0000 1.0000
36.7200 411.0000 1.0000
36.7300 410.0000 1.0000
36.7400 386.0000 1.0000
36.7500 406.0000 1.0000
36.7600 386.0000 1.0000
36.7700 423.0000 1.0000
36.7800 415.0000 1.0000
36.7900 430.0000 1.0000
36.8000 411.0000 1.0000
36.8100 396.0000 1.0000
36.8200 407.0000 1.0000
36.8300 416.0000 1.0000
36.8400 411.0000 1.0000
36.8500 394.0000 1.0000
36.8600 428.0000 1.0000
36.8700 385.0000 1.0000
36.8800 404.0000 1.0000
36.8900 432.0000 1.0000
36.9000 393.0000 1.0000
36.9100 425.0000 1.0000
36.9200 402.0000 1.0000
36.9300 372.0000 1.0000
36.9400 363.0000 1.0000
36.9500 387.0000 1.0000
36.9600 440.0000 1.0000
36.9700 408.0000 1.0000
36.9800 419.0000 1.0000
36.9900 390.0000 1.0000
37.0000 378.0000 1.0000
37.0100 370.0000 1.0000
37.0200 383.0000 1.0000
37.0300 387.0000 1.0000
37.0400 422.0000 1.0000
37.0500 385.0000 1.0000
37.0600 390.0000 1.0000
37.0700 379.0000 1.0000
37.0800 411.0000 1.0000
37.0900 406.0000 1.0000
37.1000 404.0000 1.0000
37.1100 441.0000 1.0000
37.1200 430.0000 1.0000
37.1300 431.0000 1.0000
37.1400 413.0000 1.0000
37.1500 404.0000 1.0000
37.1600 411.0000 1.0000
37.1700 394.0000 1.0000
37.1800 375.0000 1.0000
37.1900 400.0000 1.0000
37.2000 410.0000 1.0000
37.2100 413.0000 1.0000
37.2200 385.0000 1.0000
37.2300 397.0000 1.0000
37.2400 410.0000 1.0000
37.2500 382.0000 1.0000
37.2600 379.0000 1.0000
37.2700 403.0000 1.0000
37.2800 414.0000 1.0000
37.2900 404.0000 1.0000
37.3000 388.0000 1.0000
37.3100 390.0000 1.0000
37.3200 380.0000 1.0000
37.3300 393.0000 1.0000
37.3400 380.0000 1.0000
37.3500 374.0000 1.0000
37.3600 399.0000 1.0000
37.3700 411.0000 1.0000
37.3800 363.0000 1.0000
37.3900 387.0000 1.0000
37.4000 422.0000 1.0000
37.4100 352.0000 1.0000
37.4200 412.0000 1.0000
37.4300 411.0000 1.0000
37.4400 404.0000 1.0000
37.4500 408.0000 1.0000
37.4600 384.0000 1.0000
37.4700 408.0000 1.0000
37.4800 398.0000 1.0000
37.4900 373.0000 1.0000
37.5000 401.0000 1.0000
37.5100 416.0000 1.0000
37.5200 380.0000 1.0000
37.5300 418.0000 1.0000
37.5400 422.0000 1.0000
37.5500 402.0000 1.0000
37.5600 423.0000 1.0000
37.5700 396.0000 1.0000
37.5800 422.0000 1.0000
37.5900 420.0000 1.0000
37.6000 412.0000 1.0000
37.6100 412.0000 1.0000
37.6200 392.0000 1.0000
37.6300 358.0000 1.0000
37.6400 400.0000 1.0000
37.6500 367.0000 1.0000
37.6600 408.0000 1.0000
37.6700 378.0000 1.0000
37.6800 373.0000 1.0000
37.6900 383.0000 1.0000
37.7000 368.0000 1.0000
37.7100 406.0000 1.0000
37.7200 425.0000 1.0000
37.7300 394.0000 1.0000
37.7400 366.0000 1.0000
37.7500 408.0000 1.0000
37.7600 407.0000 1.0000
37.7700 407.0000 1.0000
37.7800 426.0000 1.0000
37.7900 406.0000 1.0000
37.8000 397.0000 1.0000
37.8100 381.0000 1.0000
37.8200 397.0000 1.0000
37.8300 357.0000 1.0000
37.8400 364.0000 1.0000
37.8500 382.0000 1.0000
37.8600 373.0000 1.0000
37.8700 396.0000 1.0000
37.8800 386.0000 1.0000
37.8900 410.0000 1.0000
37.9000 410.0000 1.0000
37.9100 421.0000 1.0000
37.9200 419.0000 1.0000
37.9300 408.0000 1.0000
37.9400 413.0000 1.0000
37.9500 437.0000 1.0000
37.9600 391.0000 1.0000
37.9700 393.0000 1.0000
37.9800 407.0000 1.0000
37.9900 403.0000 1.0000
38.0000 404.0000 1.0000
38.0100 436.0000 1.0000
38.0200 470.0000 1.0000
38.0300 438.0000 1.0000
38.0400 388.0000 1.0000
38.0500 436.0000 1.0000
38.0600 436.0000 1.0000
38.0700 438.0000 1.0000
38.0800 449.0000 1.0000
38.0900 448.0000 1.0000
38.1000 450.0000 1.0000
38.1100 431.0000 1.0000
38.1200 473.0000 1.0000
38.1300 434.0000 1.0000
38.1400 486.0000 1.0000
38.1500 475.0000 1.0000
38.1600 478.0000 1.0000
38.1700 481.0000 1.0000
38.1800 518.0000 1.0000
38.1900 528.0000 1.0000
38.2000 557.0000 1.0000
38.2100 575.0000 1.0000
38.2200 555.0000 1.0000
38.2300 611.0000 1.0000
38.2400 567.0000 1.0000
38.2500 601.0000 1.0000
38.2600 637.0000 1.0000
38.2700 683.0000 1.0000
38.2800 675.0000 1.0000
38.2900 656.0000 1.0000
38.3000 736.0000 1.0000
38.3100 777.0000 1.0000
38.3200 857.0000 1.0000
38.3300 825.0000 1.0000
38.3400 902.0000 1.0000
38.3500 887.0000 1.0000
38.3600 940.0000 1.0000
38.3700 1036.0000 1.0000
38.3800 1150.0000 1.0000
38.3900 1223.0000 1.0000
38.4000 1262.0000 1.0000
38.4100 1333.0000 1.0000
38.4200 1527.0000 1.0000
38.4300 1568.0000 1.0000
38.4400 1700.0000 1.0000
38.4500 1820.0000 1.0000
38.4600 1870.0000 1.0000
38.4700 2089.0000 1.0000
38.4800 2149.0000 1.0000
38.4900 2231.0000 1.0000
38.5000 2365.0000 1.0000
38.5100 2432.0000 1.0000
38.5200 2388.0000 1.0000
38.5300 2369.0000 1.0000
38.5400 2481.0000 1.0000
38.5500 2460.0000 1.0000
38.5600 2358.0000 1.0000
38.5700 2352.0000 1.0000
38.5800 2339.0000 1.0000
38.5900 2239.0000 1.0000
38.6000 2157.0000 1.0000
38.6100 2027.0000 1.0000
38.6200 1996.0000 1.0000
38.6300 1871.0000 1.0000
38.6400 1822.0000 1.0000
38.6500 1715.0000 1.0000
38.6600 1552.0000 1.0000
38.6700 1478.0000 1.0000
38.6800 1356.0000 1.0000
38.6900 1262.0000 1.0000
38.7000 1210.0000 1.0000
38.7100 1144.0000 1.0000
38.7200 1052.0000 1.0000
38.7300 973.0000 1.0000
38.7400 951.0000 1.0000
38.7500 900.0000 1.0000
38.7600 816.0000 1.0000
38.7700 758.0000 1.0000
38.7800 735.0000 1.0000
38.7900 718.0000 1.0000
38.8000 640.0000 1.0000
38.8100 653.0000 1.0000
38.8200 607.0000 1.0000
38.8300 629.0000 1.0000
38.8400 644.0000 1.0000
38.8500 593.0000 1.0000
38.8600 549.0000 1.0000
38.8700 547.0000 1.0000
38.8800 507.0000 1.0000
38.8900 484.0000 1.0000
38.9000 493.0000 1.0000
38.9100 491.0000 1.0000
38.9200 485.0000 1.0000
38.9300 475.0000 1.0000
38.9400 444.0000 1.0000
38.9500 501.0000 1.0000
38.9600 429.0000 1.0000
38.9700 409.0000 1.0000
38.9800 416.0000 1.0000
38.9900 405.0000 1.0000
39.0000 426.0000 1.0000
39.0100 416.0000 1.0000
39.0200 412.0000 1.0000
39.0300 394.0000 1.0000
39.0400 424.0000 1.0000
39.0500 409.0000 1.0000
39.0600 424.0000 1.0000
39.0700 418.0000 1.0000
39.0800 404.0000 1.0000
39.0900 387.0000 1.0000
39.1000 401.0000 1.0000
39.1100 384.0000 1.0000
39.1200 372.0000 1.0000
39.1300 371.0000 1.0000
39.1400 375.0000 1.0000
39.1500 388.0000 1.0000
39.1600 386.0000 1.0000
39.1700 366.0000 1.0000
39.1800 347.0000 1.0000
39.1900 380.0000 1.0000
39.2000 367.0000 1.0000
39.2100 331.0000 1.0000
39.2200 360.0000 1.0000
39.2300 367.0000 1.0000
39.2400 383.0000 1.0000
39.2500 354.0000 1.0000
39.2600 368.0000 1.0000
39.2700 337.0000 1.0000
39.2800 363.0000 1.0000
39.2900 374.0000 1.0000
39.3000 375.0000 1.0000
39.3100 335.0000 1.0000
39.3200 366.0000 1.0000
39.3300 356.0000 1.0000
39.3400 372.0000 1.0000
39.3500 382.0000 1.0000
39.3600 366.0000 1.0000
39.3700 331.0000 1.0000
39.3800 367.0000 1.0000
39.3900 374.0000 1.0000
39.4000 366.0000 1.0000
39.4100 319.0000 1.0000
39.4200 358.0000 1.0000
39.4300 386.0000 1.0000
39.4400 351.0000 1.0000
39.4500 344.0000 1.0000
39.4600 375.0000 1.0000
39.4700 369.0000 1.0000
39.4800 396.0000 1.0000
39.4900 381.0000 1.0000
39.5000 396.0000 1.0000
39.5100 335.0000 1.0000
39.5200 364.0000 1.0000
39.5300 369.0000 1.0000
39.5400 395.0000 1.0000
39.5500 379.0000 1.0000
39.5600 372.0000 1.0000
39.5700 363.0000 1.0000
39.5800 382.0000 1.0000
39.5900 406.0000 1.0000
39.6000 407.0000 1.0000
39.6100 345.0000 1.0000
39.6200 348.0000 1.0000
39.6300 358.0000 1.0000
39.6400 368.0000 1.0000
39.6500 346.0000 1.0000
39.6600 385.0000 1.0000
39.6700 386.0000 1.0000
39.6800 360.0000 1.0000
39.6900 333.0000 1.0000
39.7000 353.0000 1.0000
39.7100 389.0000 1.0000
39.7200 345.0000 1.0000
39.7300 362.0000 1.0000
39.7400 351.0000 1.0000
39.7500 376.0000 1.0000
39.7600 368.0000 1.0000
39.7700 350.0000 1.0000
39.7800 368.0000 1.0000
39.7900 342.0000 1.0000
39.8000 328.0000 1.0000
39.8100 339.0000 1.0000
39.8200 342.0000 1.0000
39.8300 365.0000 1.0000
39.8400 323.0000 1.0000
39.8500 334.0000 1.0000
39.8600 348.0000 1.0000
39.8700 356.0000 1.0000
39.8800 355.0000 1.0000
39.8900 335.0000 1.0000
39.9000 337.0000 1.0000
39.9100 340.0000 1.0000
39.9200 359.0000 1.0000
39.9300 376.0000 1.0000
39.9400 360.0000 1.0000
39.9500 351.0000 1.0000
39.9600 324.0000 1.0000
39.9700 321.0000 1.0000
39.9800 367.0000 1.0000
39.9900 335.0000 1.0000
40.0000 324.0000 1.0000
40.0100 335.0000 1.0000
40.0200 312.0000 1.0000
40.0300 336.0000 1.0000
40.0400 350.0000 1.0000
40.0500 329.0000 1.0000
40.0600 307.0000 1.0000
40.0700 351.0000 1.0000
40.0800 342.0000 1.0000
40.0900 366.0000 1.0000
40.1000 353.0000 1.0000
40.1100 326.0000 1.0000
40.1200 345.0000 1.0000
40.1300 359.0000 1.0000
40.1400 308.0000 1.0000
40.1500 328.0000 1.0000
40.1600 351.0000 1.0000
40.1700 312.0000 1.0000
40.1800 331.0000 1.0000
40.1900 350.0000 1.0000
40.2000 332.0000 1.0000
40.2100 329.0000 1.0000
40.2200 351.0000 1.0000
40.2300 334.0000 1.0000
40.2400 331.0000 1.0000
40.2500 342.0000 1.0000
40.2600 337.0000 1.0000
40.2700 355.0000 1.0000
40.2800 343.0000 1.0000
40.2900 313.0000 1.0000
40.3000 321.0000 1.0000
40.3100 332.0000 1.0000
40.3200 325.0000 1.0000
40.3300 357.0000 1.0000
40.3400 319.0000 1.0000
40.3500 330.0000 1.0000
40.3600 347.0000 1.0000
40.3700 305.0000 1.0000
40.3800 340.0000 1.0000
40.3900 324.0000 1.0000
40.4000 337.0000 1.0000
40.4100 337.0000 1.0000
40.4200 320.0000 1.0000
40.4300 324.0000 1.0000
40.4400 304.0000 1.0000
40.4500 319.0000 1.0000
40.4600 338.0000 1.0000
40.4700 334.0000 1.0000
40.4800 336.0000 1.0000
40.4900 337.0000 1.0000
40.5000 325.0000 1.0000
40.5100 338.0000 1.0000
40.5200 336.0000 1.0000
40.5300 347.0000 1.0000
40.5400 335.0000 1.0000
40.5500 314.0000 1.0000
40.5600 310.0000 1.0000
40.5700 343.0000 1.0000
40.5800 328.0000 1.0000
40.5900 325.0000 1.0000
40.6000 313.0000 1.0000
40.6100 326.0000 1.0000
40.6200 320.0000 1.0000
40.6300 352.0000 1.0000
40.6400 309.0000 1.0000
40.6500 314.0000 1.0000
40.6600 285.0000 1.0000
40.6700 321.0000 1.0000
40.6800 333.0000 1.0000
40.6900 320.0000 1.0000
40.7000 327.0000 1.0000
40.7100 312.0000 1.0000
40.7200 318.0000 1.0000
40.7300 294.0000 1.0000
40.7400 306.0000 1.0000
40.7500 299.0000 1.0000
40.7600 295.0000 1.0000
40.7700 321.0000 1.0000
40.7800 326.0000 1.0000
40.7900 329.0000 1.0000
40.8000 316.0000 1.0000
40.8100 295.0000 1.0000
40.8200 323.0000 1.0000
40.8300 318.0000 1.0000
40.8400 326.0000 1.0000
40.8500 322.0000 1.0000
40.8600 343.0000 1.0000
40.8700 334.0000 1.0000
40.8800 315.0000 1.0000
40.8900 345.0000 1.0000
40.9000 311.0000 1.0000
40.9100 323.0000 1.0000
40.9200 317.0000 1.0000
40.9300 304.0000 1.0000
40.9400 306.0000 1.0000
40.9500 321.0000 1.0000
40.9600 310.0000 1.0000
40.9700 319.0000 1.0000
40.9800 320.0000 1.0000
40.9900 331.0000 1.0000
41.0000 303.0000 1.0000
41.0100 316.0000 1.0000
41.0200 322.0000 1.0000
41.0300 311.0000 1.0000
41.0400 344.0000 1.0000
41.0500 322.0000 1.0000
41.0600 336.0000 1.0000
41.0700 325.0000 1.0000
41.0800 327.0000 1.0000
41.0900 302.0000 1.0000
41.1000 313.0000 1.0000
41.1100 305.0000 1.0000
41.1200 319.0000 1.0000
41.1300 341.0000 1.0000
41.1400 322.0000 1.0000
41.1500 305.0000 1.0000
41.1600 327.0000 1.0000
41.1700 334.0000 1.0000
41.1800 311.0000 1.0000
41.1900 334.0000 1.0000
41.2000 330.0000 1.0000
41.2100 345.0000 1.0000
41.2200 327.0000 1.0000
41.2300 301.0000 1.0000
41.2400 301.0000 1.0000
41.2500 313.0000 1.0000
41.2600 313.0000 1.0000
41.2700 317.0000 1.0000
41.2800 316.0000 1.0000
41.2900 318.0000 1.0000
41.3000 307.0000 1.0000
41.3100 303.0000 1.0000
41.3200 308.0000 1.0000
41.3300 299.0000 1.0000
41.3400 322.0000 1.0000
41.3500 293.0000 1.0000
41.3600 320.0000 1.0000
41.3700 318.0000 1.0000
41.3800 293.0000 1.0000
41.3900 304.0000 1.0000
41.4000 325.0000 1.0000
41.4100 318.0000 1.0000
41.4200 341.0000 1.0000
41.4300 283.0000 1.0000
41.4400 336.0000 1.0000
41.4500 346.0000 1.0000
41.4600 342.0000 1.0000
41.4700 306.0000 1.0000
41.4800 308.0000 1.0000
41.4900 321.0000 1.0000
41.5000 317.0000 1.0000
41.5100 327.0000 1.0000
41.5200 310.0000 1.0000
41.5300 330.0000 1.0000
41.5400 326.0000 1.0000
41.5500 333.0000 1.0000
41.5600 313.0000 1.0000
41.5700 311.0000 1.0000
41.5800 310.0000 1.0000
41.5900 324.0000 1.0000
41.6000 328.0000 1.0000
41.6100 312.0000 1.0000
41.6200 347.0000 1.0000
41.6300 339.0000 1.0000
41.6400 302.0000 1.0000
41.6500 331.0000 1.0000
41.6600 302.0000 1.0000
41.6700 306.0000 1.0000
41.6800 306.0000 1.0000
41.6900 323.0000 1.0000
41.7000 339.0000 1.0000
41.7100 314.0000 1.0000
41.7200 308.0000 1.0000
41.7300 309.0000 1.0000
41.7400 302.0000 1.0000
41.7500 334.0000 1.0000
41.7600 317.0000 1.0000
41.7700 313.0000 1.0000
41.7800 293.0000 1.0000
41.7900 318.0000 1.0000
41.8000 334.0000 1.0000
41.8100 318.0000 1.0000
41.8200 344.0000 1.0000
41.8300 334.0000 1.0000
41.8400 331.0000 1.0000
41.8500 332.0000 1.0000
41.8600 332.0000 1.0000
41.8700 320.0000 1.0000
41.8800 308.0000 1.0000
41.8900 325.0000 1.0000
41.9000 329.0000 1.0000
41.9100 341.0000 1.0000
41.9200 316.0000 1.0000
41.9300 313.0000 1.0000
41.9400 293.0000 1.0000
41.9500 321.0000 1.0000
41.9600 303.0000 1.0000
41.9700 311.0000 1.0000
41.9800 335.0000 1.0000
41.9900 334.0000 1.0000
42.0000 315.0000 1.0000
42.0100 307.0000 1.0000
42.0200 331.0000 1.0000
42.0300 305.0000 1.0000
42.0400 326.0000 1.0000
42.0500 342.0000 1.0000
42.0600 310.0000 1.0000
42.0700 339.0000 1.0000
42.0800 310.0000 1.0000
42.0900 308.0000 1.0000
42.1000 313.0000 1.0000
42.1100 290.0000 1.0000
42.1200 287.0000 1.0000
42.1300 319.0000 1.0000
42.1400 327.0000 1.0000
42.1500 334.0000 1.0000
42.1600 318.0000 1.0000
42.1700 294.0000 1.0000
42.1800 292.0000 1.0000
42.1900 325.0000 1.0000
42.2000 322.0000 1.0000
42.2100 320.0000 1.0000
42.2200 323.0000 1.0000
42.2300 311.0000 1.0000
42.2400 297.0000 1.0000
42.2500 321.0000 1.0000
42.2600 320.0000 1.0000
42.2700 363.0000 1.0000
42.2800 330.0000 1.0000
42.2900 299.0000 1.0000
42.3000 335.0000 1.0000
42.3100 310.0000 1.0000
42.3200 324.0000 1.0000
42.3300 317.0000 1.0000
42.3400 308.0000 1.0000
42.3500 306.0000 1.0000
42.3600 313.0000 1.0000
42.3700 311.0000 1.0000
42.3800 332.0000 1.0000
42.3900 314.0000 1.0000
42.4000 294.0000 1.0000
42.4100 291.0000 1.0000
42.4200 316.0000 1.0000
42.4300 328.0000 1.0000
42.4400 293.0000 1.0000
42.4500 328.0000 1.0000
42.4600 309.0000 1.0000
42.4700 314.0000 1.0000
42.4800 322.0000 1.0000
42.4900 326.0000 1.0000
42.5000 313.0000 1.0000
42.5100 314.0000 1.0000
42.5200 300.0000 1.0000
42.5300 310.0000 1.0000
42.5400 301.0000 1.0000
42.5500 325.0000 1.0000
42.5600 333.0000 1.0000
42.5700 327.0000 1.0000
42.5800 321.0000 1.0000
42.5900 349.0000 1.0000
42.6000 302.0000 1.0000
42.6100 302.0000 1.0000
42.6200 307.0000 1.0000
42.6300 319.0000 1.0000
42.6400 320.0000 1.0000
42.6500 318.0000 1.0000
42.6600 294.0000 1.0000
42.6700 313.0000 1.0000
42.6800 342.0000 1.0000
42.6900 290.0000 1.0000
42.7000 296.0000 1.0000
42.7100 322.0000 1.0000
42.7200 319.0000 1.0000
42.7300 308.0000 1.0000
42.7400 318.0000 1.0000
42.7500 334.0000 1.0000
42.7600 301.0000 1.0000
42.7700 303.0000 1.0000
42.7800 292.0000 1.0000
42.7900 293.0000 1.0000
42.8000 292.0000 1.0000
42.8100 323.0000 1.0000
42.8200 299.0000 1.0000
42.8300 324.0000 1.0000
42.8400 347.0000 1.0000
42.8500 306.0000 1.0000
42.8600 322.0000 1.0000
42.8700 316.0000 1.0000
42.8800 330.0000 1.0000
42.8900 304.0000 1.0000
42.9000 320.0000 1.0000
42.9100 300.0000 1.0000
42.9200 316.0000 1.0000
42.9300 309.0000 1.0000
42.9400 329.0000 1.0000
42.9500 318.0000 1.0000
42.9600 300.0000 1.0000
42.9700 304.0000 1.0000
42.9800 329.0000 1.0000
42.9900 342.0000 1.0000
43.0000 292.0000 1.0000
43.0100 321.0000 1.0000
43.0200 333.0000 1.0000
43.0300 310.0000 1.0000
43.0400 328.0000 1.0000
43.0500 314.0000 1.0000
43.0600 278.0000 1.0000
43.0700 326.0000 1.0000
43.0800 343.0000 1.0000
43.0900 328.0000 1.0000
43.1000 360.0000 1.0000
43.1100 323.0000 1.0000
43.1200 316.0000 1.0000
43.1300 351.0000 1.0000
43.1400 326.0000 1.0000
43.1500 352.0000 1.0000
43.1600 331.0000 1.0000
43.1700 307.0000 1.0000
43.1800 339.0000 1.0000
43.1900 340.0000 1.0000
43.2000 397.0000 1.0000
43.2100 348.0000 1.0000
43.2200 326.0000 1.0000
43.2300 315.0000 1.0000
43.2400 326.0000 1.0000
43.2500 351.0000 1.0000
43.2600 307.0000 1.0000
43.2700 354.0000 1.0000
43.2800 342.0000 1.0000
43.2900 334.0000 1.0000
43.3000 343.0000 1.0000
43.3100 365.0000 1.0000
43.3200 342.0000 1.0000
43.3300 336.0000 1.0000
43.3400 352.0000 1.0000
43.3500 332.0000 1.0000
43.3600 353.0000 1.0000
43.3700 320.0000 1.0000
43.3800 328.0000 1.0000
43.3900 317.0000 1.0000
43.4000 344.0000 1.0000
43.4100 340.0000 1.0000
43.4200 324.0000 1.0000
43.4300 308.0000 1.0000
43.4400 302.0000 1.0000
43.4500 314.0000 1.0000
43.4600 338.0000 1.0000
43.4700 338.0000 1.0000
43.4800 349.0000 1.0000
43.4900 345.0000 1.0000
43.5000 306.0000 1.0000
43.5100 301.0000 1.0000
43.5200 301.0000 1.0000
43.5300 302.0000 1.0000
43.5400 323.0000 1.0000
43.5500 333.0000 1.0000
43.5600 308.0000 1.0000
43.5700 300.0000 1.0000
43.5800 319.0000 1.0000
43.5900 275.0000 1.0000
43.6000 338.0000 1.0000
43.6100 317.0000 1.0000
43.6200 301.0000 1.0000
43.6300 306.0000 1.0000
43.6400 315.0000 1.0000
43.6500 321.0000 1.0000
43.6600 306.0000 1.0000
43.6700 323.0000 1.0000
43.6800 322.0000 1.0000
43.6900 302.0000 1.0000
43.7000 306.0000 1.0000
43.7100 305.0000 1.0000
43.7200 312.0000 1.0000
43.7300 310.0000 1.0000
43.7400 289.0000 1.0000
43.7500 328.0000 1.0000
43.7600 300.0000 1.0000
43.7700 319.0000 1.0000
43.7800 307.0000 1.0000
43.7900 289.0000 1.0000
43.8000 304.0000 1.0000
43.8100 296.0000 1.0000
43.8200 322.0000 1.0000
43.8300 320.0000 1.0000
43.8400 293.0000 1.0000
43.8500 324.0000 1.0000
43.8600 301.0000 1.0000
43.8700 316.0000 1.0000
43.8800 323.0000 1.0000
43.8900 298.0000 1.0000
43.9000 301.0000 1.0000
43.9100 304.0000 1.0000
43.9200 318.0000 1.0000
43.9300 281.0000 1.0000
43.9400 293.0000 1.0000
43.9500 281.0000 1.0000
43.9600 287.0000 1.0000
43.9700 305.0000 1.0000
43.9800 313.0000 1.0000
43.9900 301.0000 1.0000
44.0000 283.0000 1.0000
44.0100 290.0000 1.0000
44.0200 299.0000 1.0000
44.0300 317.0000 1.0000
44.0400 324.0000 1.0000
44.0500 330.0000 1.0000
44.0600 319.0000 1.0000
44.0700 335.0000 1.0000
44.0800 319.0000 1.0000
44.0900 336.0000 1.0000
44.1000 292.0000 1.0000
44.1100 301.0000 1.0000
44.1200 302.0000 1.0000
44.1300 304.0000 1.0000
44.1400 319.0000 1.0000
44.1500 314.0000 1.0000
44.1600 307.0000 1.0000
44.1700 306.0000 1.0000
44.1800 325.0000 1.0000
44.1900 282.0000 1.0000
44.2000 294.0000 1.0000
44.2100 304.0000 1.0000
44.2200 309.0000 1.0000
44.2300 295.0000 1.0000
44.2400 288.0000 1.0000
44.2500 295.0000 1.0000
44.2600 280.0000 1.0000
44.2700 284.0000 1.0000
44.2800 300.0000 1.0000
44.2900 302.0000 1.0000
44.3000 272.0000 1.0000
44.3100 338.0000 1.0000
44.3200 322.0000 1.0000
44.3300 292.0000 1.0000
44.3400 297.0000 1.0000
44.3500 300.0000 1.0000
44.3600 320.0000 1.0000
44.3700 310.0000 1.0000
44.3800 278.0000 1.0000
44.3900 305.0000 1.0000
44.4000 314.0000 1.0000
44.4100 288.0000 1.0000
44.4200 313.0000 1.0000
44.4300 307.0000 1.0000
44.4400 319.0000 1.0000
44.4500 326.0000 1.0000
44.4600 291.0000 1.0000
44.4700 282.0000 1.0000
44.4800 295.0000 1.0000
44.4900 331.0000 1.0000
44.5000 315.0000 1.0000
44.5100 305.0000 1.0000
44.5200 292.0000 1.0000
44.5300 324.0000 1.0000
44.5400 296.0000 1.0000
44.5500 311.0000 1.0000
44.5600 282.0000 1.0000
44.5700 302.0000 1.0000
44.5800 316.0000 1.0000
44.5900 317.0000 1.0000
44.6000 318.0000 1.0000
44.6100 318.0000 1.0000
44.6200 276.0000 1.0000
44.6300 289.0000 1.0000
44.6400 289.0000 1.0000
44.6500 305.0000 1.0000
44.6600 294.0000 1.0000
44.6700 292.0000 1.0000
44.6800 325.0000 1.0000
44.6900 313.0000 1.0000
44.7000 291.0000 1.0000
44.7100 300.0000 1.0000
44.7200 300.0000 1.0000
44.7300 284.0000 1.0000
44.7400 297.0000 1.0000
44.7500 287.0000 1.0000
44.7600 278.0000 1.0000
44.7700 281.0000 1.0000
44.7800 299.0000 1.0000
44.7900 297.0000 1.0000
44.8000 308.0000 1.0000
44.8100 304.0000 1.0000
44.8200 300.0000 1.0000
44.8300 304.0000 1.0000
44.8400 303.0000 1.0000
44.8500 300.0000 1.0000
44.8600 303.0000 1.0000
44.8700 294.0000 1.0000
44.8800 287.0000 1.0000
44.8900 286.0000 1.0000
44.9000 293.0000 1.0000
44.9100 301.0000 1.0000
44.9200 293.0000 1.0000
44.9300 330.0000 1.0000
44.9400 300.0000 1.0000
44.9500 327.0000 1.0000
44.9600 304.0000 1.0000
44.9700 285.0000 1.0000
44.9800 316.0000 1.0000
44.9900 292.0000 1.0000
45.0000 300.0000 1.0000
45.0100 300.0000 1.0000
45.0200 286.0000 1.0000
45.0300 314.0000 1.0000
45.0400 282.0000 1.0000
45.0500 276.0000 1.0000
45.0600 285.0000 1.0000
45.0700 299.0000 1.0000
45.0800 293.0000 1.0000
45.0900 279.0000 1.0000
45.1000 279.0000 1.0000
45.1100 309.0000 1.0000
45.1200 274.0000 1.0000
45.1300 289.0000 1.0000
45.1400 285.0000 1.0000
45.1500 286.0000 1.0000
45.1600 263.0000 1.0000
45.1700 263.0000 1.0000
45.1800 262.0000 1.0000
45.1900 310.0000 1.0000
45.2000 298.0000 1.0000
45.2100 308.0000 1.0000
45.2200 276.0000 1.0000
45.2300 282.0000 1.0000
45.2400 324.0000 1.0000
45.2500 274.0000 1.0000
45.2600 285.0000 1.0000
45.2700 280.0000 1.0000
45.2800 292.0000 1.0000
45.2900 275.0000 1.0000
45.3000 276.0000 1.0000
45.3100 293.0000 1.0000
45.3200 294.0000 1.0000
45.3300 316.0000 1.0000
45.3400 314.0000 1.0000
45.3500 301.0000 1.0000
45.3600 299.0000 1.0000
45.3700 293.0000 1.0000
45.3800 291.0000 1.0000
45.3900 305.0000 1.0000
45.4000 288.0000 1.0000
45.4100 286.0000 1.0000
45.4200 276.0000 1.0000
45.4300 297.0000 1.0000
45.4400 287.0000 1.0000
45.4500 278.0000 1.0000
45.4600 277.0000 1.0000
45.4700 302.0000 1.0000
45.4800 295.0000 1.0000
45.4900 309.0000 1.0000
45.5000 309.0000 1.0000
45.5100 298.0000 1.0000
45.5200 302.0000 1.0000
45.5300 289.0000 1.0000
45.5400 301.0000 1.0000
45.5500 308.0000 1.0000
45.5600 303.0000 1.0000
45.5700 317.0000 1.0000
45.5800 318.0000 1.0000
45.5900 290.0000 1.0000
45.6000 310.0000 1.0000
45.6100 306.0000 1.0000
45.6200 276.0000 1.0000
45.6300 284.0000 1.0000
45.6400 290.0000 1.0000
45.6500 297.0000 1.0000
45.6600 312.0000 1.0000
45.6700 281.0000 1.0000
45.6800 299.0000 1.0000
45.6900 296.0000 1.0000
45.7000 290.0000 1.0000
45.7100 311.0000 1.0000
45.7200 266.0000 1.0000
45.7300 281.0000 1.0000
45.7400 289.0000 1.0000
45.7500 275.0000 1.0000
45.7600 278.0000 1.0000
45.7700 285.0000 1.0000
45.7800 300.0000 1.0000
45.7900 289.0000 1.0000
45.8000 299.0000 1.0000
45.8100 297.0000 1.0000
45.8200 301.0000 1.0000
45.8300 293.0000 1.0000
45.8400 310.0000 1.0000
45.8500 290.0000 1.0000
45.8600 293.0000 1.0000
45.8700 289.0000 1.0000
45.8800 276.0000 1.0000
45.8900 311.0000 1.0000
45.9000 275.0000 1.0000
45.9100 280.0000 1.0000
45.9200 277.0000 1.0000
45.9300 292.0000 1.0000
45.9400 262.0000 1.0000
45.9500 292.0000 1.0000
45.9600 289.0000 1.0000
45.9700 294.0000 1.0000
45.9800 290.0000 1.0000
45.9900 300.0000 1.0000
46.0000 306.0000 1.0000
46.0100 297.0000 1.0000
46.0200 278.0000 1.0000
46.0300 313.0000 1.0000
46.0400 298.0000 1.0000
46.0500 276.0000 1.0000
46.0600 308.0000 1.0000
46.0700 262.0000 1.0000
46.0800 289.0000 1.0000
46.0900 290.0000 1.0000
46.1000 286.0000 1.0000
46.1100 278.0000 1.0000
46.1200 293.0000 1.0000
46.1300 265.0000 1.0000
46.1400 275.0000 1.0000
46.1500 293.0000 1.0000
46.1600 281.0000 1.0000
46.1700 284.0000 1.0000
46.1800 284.0000 1.0000
46.1900 286.0000 1.0000
46.2000 291.0000 1.0000
46.2100 312.0000 1.0000
46.2200 320.0000 1.0000
46.2300 305.0000 1.0000
46.2400 292.0000 1.0000
46.2500 281.0000 1.0000
46.2600 267.0000 1.0000
46.2700 290.0000 1.0000
46.2800 292.0000 1.0000
46.2900 288.0000 1.0000
46.3000 296.0000 1.0000
46.3100 284.0000 1.0000
46.3200 281.0000 1.0000
46.3300 287.0000 1.0000
46.3400 288.0000 1.0000
46.3500 283.0000 1.0000
46.3600 262.0000 1.0000
46.3700 270.0000 1.0000
46.3800 290.0000 1.0000
46.3900 288.0000 1.0000
46.4000 283.0000 1.0000
46.4100 291.0000 1.0000
46.4200 298.0000 1.0000
46.4300 281.0000 1.0000
46.4400 264.0000 1.0000
46.4500 289.0000 1.0000
46.4600 285.0000 1.0000
46.4700 286.0000 1.0000
46.4800 280.0000 1.0000
46.4900 290.0000 1.0000
46.5000 275.0000 1.0000
46.5100 312.0000 1.0000
46.5200 278.0000 1.0000
46.5300 275.0000 1.0000
46.5400 312.0000 1.0000
46.5500 292.0000 1.0000
46.5600 293.0000 1.0000
46.5700 295.0000 1.0000
46.5800 255.0000 1.0000
46.5900 284.0000 1.0000
46.6000 280.0000 1.0000
46.6100 293.0000 1.0000
46.6200 289.0000 1.0000
46.6300 287.0000 1.0000
46.6400 278.0000 1.0000
46.6500 266.0000 1.0000
46.6600 277.0000 1.0000
46.6700 267.0000 1.0000
46.6800 276.0000 1.0000
46.6900 279.0000 1.0000
46.7000 277.0000 1.0000
46.7100 284.0000 1.0000
46.7200 297.0000 1.0000
46.7300 253.0000 1.0000
46.7400 283.0000 1.0000
46.7500 301.0000 1.0000
46.7600 296.0000 1.0000
46.7700 278.0000 1.0000
46.7800 307.0000 1.0000
46.7900 282.0000 1.0000
46.8000 259.0000 1.0000
46.8100 286.0000 1.0000
46.8200 283.0000 1.0000
46.8300 294.0000 1.0000
46.8400 304.0000 1.0000
46.8500 292.0000 1.0000
46.8600 288.0000 1.0000
46.8700 288.0000 1.0000
46.8800 279.0000 1.0000
46.8900 269.0000 1.0000
46.9000 302.0000 1.0000
46.9100 288.0000 1.0000
46.9200 259.0000 1.0000
46.9300 283.0000 1.0000
46.9400 290.0000 1.0000
46.9500 299.0000 1.0000
46.9600 284.0000 1.0000
46.9700 267.0000 1.0000
46.9800 281.0000 1.0000
46.9900 301.0000 1.0000
47.0000 297.0000 1.0000
47.0100 305.0000 1.0000
47.0200 301.0000 1.0000
47.0300 325.0000 1.0000
47.0400 293.0000 1.0000
47.0500 299.0000 1.0000
47.0600 308.0000 1.0000
47.0700 267.0000 1.0000
47.0800 295.0000 1.0000
47.0900 290.0000 1.0000
47.1000 300.0000 1.0000
47.1100 296.0000 1.0000
47.1200 266.0000 1.0000
47.1300 282.0000 1.0000
47.1400 298.0000 1.0000
47.1500 293.0000 1.0000
47.1600 307.0000 1.0000
47.1700 278.0000 1.0000
47.1800 252.0000 1.0000
47.1900 290.0000 1.0000
47.2000 269.0000 1.0000
47.2100 280.0000 1.0000
47.2200 296.0000 1.0000
47.2300 265.0000 1.0000
47.2400 306.0000 1.0000
47.2500 278.0000 1.0000
47.2600 273.0000 1.0000
47.2700 280.0000 1.0000
47.2800 288.0000 1.0000
47.2900 268.0000 1.0000
47.3000 265.0000 1.0000
47.3100 260.0000 1.0000
47.3200 274.0000 1.0000
47.3300 299.0000 1.0000
47.3400 298.0000 1.0000
47.3500 261.0000 1.0000
47.3600 248.0000 1.0000
47.3700 268.0000 1.0000
47.3800 284.0000 1.0000
47.3900 294.0000 1.0000
47.4000 269.0000 1.0000
47.4100 267.0000 1.0000
47.4200 293.0000 1.0000
47.4300 278.0000 1.0000
47.4400 277.0000 1.0000
47.4500 300.0000 1.0000
47.4600 325.0000 1.0000
47.4700 283.0000 1.0000
47.4800 258.0000 1.0000
47.4900 278.0000 1.0000
47.5000 276.0000 1.0000
47.5100 306.0000 1.0000
47.5200 272.0000 1.0000
47.5300 298.0000 1.0000
47.5400 303.0000 1.0000
47.5500 287.0000 1.0000
47.5600 282.0000 1.0000
47.5700 288.0000 1.0000
47.5800 271.0000 1.0000
47.5900 268.0000 1.0000
47.6000 270.0000 1.0000
47.6100 280.0000 1.0000
47.6200 297.0000 1.0000
47.6300 268.0000 1.0000
47.6400 288.0000 1.0000
47.6500 311.0000 1.0000
47.6600 292.0000 1.0000
47.6700 275.0000 1.0000
47.6800 259.0000 1.0000
47.6900 262.0000 1.0000
47.7000 263.0000 1.0000
47.7100 267.0000 1.0000
47.7200 271.0000 1.0000
47.7300 277.0000 1.0000
47.7400 297.0000 1.0000
47.7500 267.0000 1.0000
47.7600 294.0000 1.0000
47.7700 298.0000 1.0000
47.7800 277.0000 1.0000
47.7900 286.0000 1.0000
47.8000 274.0000 1.0000
47.8100 295.0000 1.0000
47.8200 272.0000 1.0000
47.8300 289.0000 1.0000
47.8400 265.0000 1.0000
47.8500 276.0000 1.0000
47.8600 279.0000 1.0000
47.8700 292.0000 1.0000
47.8800 268.0000 1.0000
47.8900 265.0000 1.0000
47.9000 267.0000 1.0000
47.9100 285.0000 1.0000
47.9200 270.0000 1.0000
47.9300 286.0000 1.0000
47.9400 285.0000 1.0000
47.9500 271.0000 1.0000
47.9600 256.0000 1.0000
47.9700 258.0000 1.0000
47.9800 274.0000 1.0000
47.9900 261.0000 1.0000
48.0000 252.0000 1.0000
48.0100 290.0000 1.0000
48.0200 282.0000 1.0000
48.0300 254.0000 1.0000
48.0400 267.0000 1.0000
48.0500 267.0000 1.0000
48.0600 273.0000 1.0000
48.0700 290.0000 1.0000
48.0800 296.0000 1.0000
48.0900 319.0000 1.0000
48.1000 283.0000 1.0000
48.1100 250.0000 1.0000
48.1200 242.0000 1.0000
48.1300 299.0000 1.0000
48.1400 275.0000 1.0000
48.1500 270.0000 1.0000
48.1600 270.0000 1.0000
48.1700 291.0000 1.0000
48.1800 295.0000 1.0000
48.1900 256.0000 1.0000
48.2000 271.0000 1.0000
48.2100 283.0000 1.0000
48.2200 252.0000 1.0000
48.2300 262.0000 1.0000
48.2400 269.0000 1.0000
48.2500 276.0000 1.0000
48.2600 276.0000 1.0000
48.2700 282.0000 1.0000
48.2800 262.0000 1.0000
48.2900 269.0000 1.0000
48.3000 275.0000 1.0000
48.3100 261.0000 1.0000
48.3200 259.0000 1.0000
48.3300 278.0000 1.0000
48.3400 275.0000 1.0000
48.3500 293.0000 1.0000
48.3600 296.0000 1.0000
48.3700 280.0000 1.0000
48.3800 284.0000 1.0000
48.3900 271.0000 1.0000
48.4000 262.0000 1.0000
48.4100 279.0000 1.0000
48.4200 262.0000 1.0000
48.4300 272.0000 1.0000
48.4400 304.0000 1.0000
48.4500 305.0000 1.0000
48.4600 296.0000 1.0000
48.4700 264.0000 1.0000
48.4800 260.0000 1.0000
48.4900 282.0000 1.0000
48.5000 277.0000 1.0000
48.5100 239.0000 1.0000
48.5200 286.0000 1.0000
48.5300 297.0000 1.0000
48.5400 270.0000 1.0000
48.5500 293.0000 1.0000
48.5600 258.0000 1.0000
48.5700 281.0000 1.0000
48.5800 277.0000 1.0000
48.5900 246.0000 1.0000
48.6000 270.0000 1.0000
48.6100 299.0000 1.0000
48.6200 268.0000 1.0000
48.6300 269.0000 1.0000
48.6400 281.0000 1.0000
48.6500 271.0000 1.0000
48.6600 291.0000 1.0000
48.6700 273.0000 1.0000
48.6800 266.0000 1.0000
48.6900 261.0000 1.0000
48.7000 261.0000 1.0000
48.7100 256.0000 1.0000
48.7200 265.0000 1.0000
48.7300 277.0000 1.0000
48.7400 268.0000 1.0000
48.7500 278.0000 1.0000
48.7600 298.0000 1.0000
48.7700 243.0000 1.0000
48.7800 241.0000 1.0000
48.7900 254.0000 1.0000
48.8000 261.0000 1.0000
48.8100 267.0000 1.0000
48.8200 264.0000 1.0000
48.8300 260.0000 1.0000
48.8400 278.0000 1.0000
48.8500 265.0000 1.0000
48.8600 260.0000 1.0000
48.8700 299.0000 1.0000
48.8800 295.0000 1.0000
48.8900 254.0000 1.0000
48.9000 258.0000 1.0000
48.9100 287.0000 1.0000
48.9200 269.0000 1.0000
48.9300 313.0000 1.0000
48.9400 289.0000 1.0000
48.9500 268.0000 1.0000
48.9600 249.0000 1.0000
48.9700 280.0000 1.0000
48.9800 246.0000 1.0000
48.9900 277.0000 1.0000
49.0000 283.0000 1.0000
49.0100 268.0000 1.0000
49.0200 260.0000 1.0000
49.0300 288.0000 1.0000
49.0400 267.0000 1.0000
49.0500 258.0000 1.0000
49.0600 261.0000 1.0000
49.0700 268.0000 1.0000
49.0800 272.0000 1.0000
49.0900 274.0000 1.0000
49.1000 292.0000 1.0000
49.1100 273.0000 1.0000
49.1200 273.0000 1.0000
49.1300 255.0000 1.0000
49.1400 277.0000 1.0000
49.1500 289.0000 1.0000
49.1600 274.0000 1.0000
49.1700 269.0000 1.0000
49.1800 252.0000 1.0000
49.1900 264.0000 1.0000
49.2000 241.0000 1.0000
49.2100 277.0000 1.0000
49.2200 264.0000 1.0000
49.2300 289.0000 1.0000
49.2400 282.0000 1.0000
49.2500 275.0000 1.0000
49.2600 287.0000 1.0000
49.2700 291.0000 1.0000
49.2800 295.0000 1.0000
49.2900 276.0000 1.0000
49.3000 290.0000 1.0000
49.3100 247.0000 1.0000
49.3200 255.0000 1.0000
49.3300 274.0000 1.0000
49.3400 265.0000 1.0000
49.3500 272.0000 1.0000
49.3600 252.0000 1.0000
49.3700 255.0000 1.0000
49.3800 251.0000 1.0000
49.3900 275.0000 1.0000
49.4000 261.0000 1.0000
49.4100 293.0000 1.0000
49.4200 290.0000 1.0000
49.4300 280.0000 1.0000
49.4400 252.0000 1.0000
49.4500 292.0000 1.0000
49.4600 263.0000 1.0000
49.4700 283.0000 1.0000
49.4800 265.0000 1.0000
49.4900 256.0000 1.0000
49.5000 260.0000 1.0000
49.5100 285.0000 1.0000
49.5200 244.0000 1.0000
49.5300 259.0000 1.0000
49.5400 269.0000 1.0000
49.5500 275.0000 1.0000
49.5600 265.0000 1.0000
49.5700 266.0000 1.0000
49.5800 235.0000 1.0000
49.5900 256.0000 1.0000
49.6000 261.0000 1.0000
49.6100 249.0000 1.0000
49.6200 295.0000 1.0000
49.6300 263.0000 1.0000
49.6400 265.0000 1.0000
49.6500 284.0000 1.0000
49.6600 267.0000 1.0000
49.6700 282.0000 1.0000
49.6800 257.0000 1.0000
49.6900 281.0000 1.0000
49.7000 277.0000 1.0000
49.7100 256.0000 1.0000
49.7200 252.0000 1.0000
49.7300 275.0000 1.0000
49.7400 265.0000 1.0000
49.7500 260.0000 1.0000
49.7600 277.0000 1.0000
49.7700 270.0000 1.0000
49.7800 265.0000 1.0000
49.7900 285.0000 1.0000
49.8000 287.0000 1.0000
49.8100 266.0000 1.0000
49.8200 258.0000 1.0000
49.8300 288.0000 1.0000
49.8400 271.0000 1.0000
49.8500 278.0000 1.0000
49.8600 285.0000 1.0000
49.8700 259.0000 1.0000
49.8800 244.0000 1.0000
49.8900 273.0000 1.0000
49.9000 277.0000 1.0000
49.9100 278.0000 1.0000
49.9200 266.0000 1.0000
49.9300 293.0000 1.0000
49.9400 256.0000 1.0000
49.9500 254.0000 1.0000
49.9600 256.0000 1.0000
49.9700 260.0000 1.0000
49.9800 268.0000 1.0000
49.9900 246.0000 1.0000
50.0000 266.0000 1.0000
50.0100 269.0000 1.0000
50.0200 265.0000 1.0000
50.0300 272.0000 1.0000
50.0400 285.0000 1.0000
50.0500 268.0000 1.0000
50.0600 278.0000 1.0000
50.0700 268.0000 1.0000
50.0800 278.0000 1.0000
50.0900 274.0000 1.0000
50.1000 276.0000 1.0000
50.1100 279.0000 1.0000
50.1200 292.0000 1.0000
50.1300 265.0000 1.0000
50.1400 289.0000 1.0000
50.1500 279.0000 1.0000
50.1600 256.0000 1.0000
50.1700 263.0000 1.0000
50.1800 296.0000 1.0000
50.1900 298.0000 1.0000
50.2000 284.0000 1.0000
50.2100 284.0000 1.0000
50.2200 284.0000 1.0000
50.2300 284.0000 1.0000
50.2400 246.0000 1.0000
50.2500 254.0000 1.0000
50.2600 269.0000 1.0000
50.2700 271.0000 1.0000
50.2800 277.0000 1.0000
50.2900 264.0000 1.0000
50.3000 251.0000 1.0000
50.3100 269.0000 1.0000
50.3200 278.0000 1.0000
50.3300 293.0000 1.0000
50.3400 279.0000 1.0000
50.3500 265.0000 1.0000
50.3600 254.0000 1.0000
50.3700 285.0000 1.0000
50.3800 285.0000 1.0000
50.3900 286.0000 1.0000
50.4000 264.0000 1.0000
50.4100 277.0000 1.0000
50.4200 281.0000 1.0000
50.4300 273.0000 1.0000
50.4400 285.0000 1.0000
50.4500 282.0000 1.0000
50.4600 276.0000 1.0000
50.4700 267.0000 1.0000
50.4800 271.0000 1.0000
50.4900 276.0000 1.0000
50.5000 256.0000 1.0000
50.5100 273.0000 1.0000
50.5200 276.0000 1.0000
50.5300 283.0000 1.0000
50.5400 257.0000 1.0000
50.5500 287.0000 1.0000
50.5600 277.0000 1.0000
50.5700 261.0000 1.0000
50.5800 250.0000 1.0000
50.5900 282.0000 1.0000
50.6000 262.0000 1.0000
50.6100 263.0000 1.0000
50.6200 256.0000 1.0000
50.6300 276.0000 1.0000
50.6400 306.0000 1.0000
50.6500 272.0000 1.0000
50.6600 276.0000 1.0000
50.6700 271.0000 1.0000
50.6800 261.0000 1.0000
50.6900 283.0000 1.0000
50.7000 263.0000 1.0000
50.7100 288.0000 1.0000
50.7200 279.0000 1.0000
50.7300 281.0000 1.0000
50.7400 276.0000 1.0000
50.7500 256.0000 1.0000
50.7600 280.0000 1.0000
50.7700 276.0000 1.0000
50.7800 272.0000 1.0000
50.7900 263.0000 1.0000
50.8000 281.0000 1.0000
50.8100 261.0000 1.0000
50.8200 266.0000 1.0000
50.8300 277.0000 1.0000
50.8400 256.0000 1.0000
50.8500 268.0000 1.0000
50.8600 276.0000 1.0000
50.8700 286.0000 1.0000
50.8800 269.0000 1.0000
50.8900 277.0000 1.0000
50.9000 252.0000 1.0000
50.9100 274.0000 1.0000
50.9200 252.0000 1.0000
50.9300 274.0000 1.0000
50.9400 271.0000 1.0000
50.9500 282.0000 1.0000
50.9600 267.0000 1.0000
50.9700 256.0000 1.0000
50.9800 293.0000 1.0000
50.9900 309.0000 1.0000
51.0000 263.0000 1.0000
51.0100 281.0000 1.0000
51.0200 280.0000 1.0000
51.0300 268.0000 1.0000
51.0400 264.0000 1.0000
51.0500 254.0000 1.0000
51.0600 260.0000 1.0000
51.0700 277.0000 1.0000
51.0800 297.0000 1.0000
51.0900 277.0000 1.0000
51.1000 292.0000 1.0000
51.1100 290.0000 1.0000
51.1200 290.0000 1.0000
51.1300 266.0000 1.0000
51.1400 270.0000 1.0000
51.1500 276.0000 1.0000
51.1600 288.0000 1.0000
51.1700 281.0000 1.0000
51.1800 267.0000 1.0000
51.1900 270.0000 1.0000
51.2000 280.0000 1.0000
51.2100 283.0000 1.0000
51.2200 286.0000 1.0000
51.2300 255.0000 1.0000
51.2400 266.0000 1.0000
51.2500 274.0000 1.0000
51.2600 268.0000 1.0000
51.2700 314.0000 1.0000
51.2800 296.0000 1.0000
51.2900 254.0000 1.0000
51.3000 268.0000 1.0000
51.3100 294.0000 1.0000
51.3200 270.0000 1.0000
51.3300 285.0000 1.0000
51.3400 274.0000 1.0000
51.3500 262.0000 1.0000
51.3600 266.0000 1.0000
51.3700 266.0000 1.0000
51.3800 286.0000 1.0000
51.3900 270.0000 1.0000
51.4000 271.0000 1.0000
51.4100 258.0000 1.0000
51.4200 268.0000 1.0000
51.4300 270.0000 1.0000
51.4400 286.0000 1.0000
51.4500 287.0000 1.0000
51.4600 294.0000 1.0000
51.4700 269.0000 1.0000
51.4800 310.0000 1.0000
51.4900 282.0000 1.0000
51.5000 276.0000 1.0000
51.5100 281.0000 1.0000
51.5200 273.0000 1.0000
51.5300 299.0000 1.0000
51.5400 278.0000 1.0000
51.5500 298.0000 1.0000
51.5600 305.0000 1.0000
51.5700 281.0000 1.0000
51.5800 308.0000 1.0000
51.5900 286.0000 1.0000
51.6000 277.0000 1.0000
51.6100 314.0000 1.0000
51.6200 290.0000 1.0000
51.6300 261.0000 1.0000
51.6400 289.0000 1.0000
51.6500 285.0000 1.0000
51.6600 284.0000 1.0000
51.6700 282.0000 1.0000
51.6800 287.0000 1.0000
51.6900 296.0000 1.0000
51.7000 302.0000 1.0000
51.7100 291.0000 1.0000
51.7200 276.0000 1.0000
51.7300 279.0000 1.0000
51.7400 282.0000 1.0000
51.7500 294.0000 1.0000
51.7600 312.0000 1.0000
51.7700 297.0000 1.0000
51.7800 308.0000 1.0000
51.7900 286.0000 1.0000
51.8000 301.0000 1.0000
51.8100 269.0000 1.0000
51.8200 323.0000 1.0000
51.8300 338.0000 1.0000
51.8400 338.0000 1.0000
51.8500 307.0000 1.0000
51.8600 357.0000 1.0000
51.8700 364.0000 1.0000
51.8800 317.0000 1.0000
51.8900 357.0000 1.0000
51.9000 397.0000 1.0000
51.9100 369.0000 1.0000
51.9200 340.0000 1.0000
51.9300 361.0000 1.0000
51.9400 369.0000 1.0000
51.9500 369.0000 1.0000
51.9600 393.0000 1.0000
51.9700 415.0000 1.0000
51.9800 438.0000 1.0000
51.9900 442.0000 1.0000
52.0000 472.0000 1.0000
52.0100 471.0000 1.0000
52.0200 507.0000 1.0000
52.0300 506.0000 1.0000
52.0400 553.0000 1.0000
52.0500 569.0000 1.0000
52.0600 579.0000 1.0000
52.0700 629.0000 1.0000
52.0800 683.0000 1.0000
52.0900 673.0000 1.0000
52.1000 730.0000 1.0000
52.1100 824.0000 1.0000
52.1200 875.0000 1.0000
52.1300 886.0000 1.0000
52.1400 1010.0000 1.0000
52.1500 1096.0000 1.0000
52.1600 1192.0000 1.0000
52.1700 1312.0000 1.0000
52.1800 1419.0000 1.0000
52.1900 1523.0000 1.0000
52.2000 1653.0000 1.0000
52.2100 1763.0000 1.0000
52.2200 1911.0000 1.0000
52.2300 2010.0000 1.0000
52.2400 2085.0000 1.0000
52.2500 2194.0000 1.0000
52.2600 2256.0000 1.0000
52.2700 2251.0000 1.0000
52.2800 2229.0000 1.0000
52.2900 2166.0000 1.0000
52.3000 2091.0000 1.0000
52.3100 2034.0000 1.0000
52.3200 1948.0000 1.0000
52.3300 1911.0000 1.0000
52.3400 1729.0000 1.0000
52.3500 1803.0000 1.0000
52.3600 1726.0000 1.0000
52.3700 1731.0000 1.0000
52.3800 1688.0000 1.0000
52.3900 1608.0000 1.0000
52.4000 1546.0000 1.0000
52.4100 1502.0000 1.0000
52.4200 1391.0000 1.0000
52.4300 1404.0000 1.0000
52.4400 1253.0000 1.0000
52.4500 1166.0000 1.0000
52.4600 1076.0000 1.0000
52.4700 1044.0000 1.0000
52.4800 891.0000 1.0000
52.4900 869.0000 1.0000
52.5000 790.0000 1.0000
52.5100 726.0000 1.0000
52.5200 642.0000 1.0000
52.5300 665.0000 1.0000
52.5400 671.0000 1.0000
52.5500 635.0000 1.0000
52.5600 547.0000 1.0000
52.5700 561.0000 1.0000
52.5800 485.0000 1.0000
52.5900 494.0000 1.0000
52.6000 486.0000 1.0000
52.6100 471.0000 1.0000
52.6200 471.0000 1.0000
52.6300 434.0000 1.0000
52.6400 441.0000 1.0000
52.6500 388.0000 1.0000
52.6600 371.0000 1.0000
52.6700 379.0000 1.0000
52.6800 385.0000 1.0000
52.6900 361.0000 1.0000
52.7000 383.0000 1.0000
52.7100 355.0000 1.0000
52.7200 348.0000 1.0000
52.7300 356.0000 1.0000
52.7400 348.0000 1.0000
52.7500 347.0000 1.0000
52.7600 375.0000 1.0000
52.7700 345.0000 1.0000
52.7800 313.0000 1.0000
52.7900 348.0000 1.0000
52.8000 315.0000 1.0000
52.8100 336.0000 1.0000
52.8200 327.0000 1.0000
52.8300 355.0000 1.0000
52.8400 315.0000 1.0000
52.8500 314.0000 1.0000
52.8600 334.0000 1.0000
52.8700 316.0000 1.0000
52.8800 309.0000 1.0000
52.8900 302.0000 1.0000
52.9000 290.0000 1.0000
52.9100 299.0000 1.0000
52.9200 287.0000 1.0000
52.9300 305.0000 1.0000
52.9400 287.0000 1.0000
52.9500 275.0000 1.0000
52.9600 281.0000 1.0000
52.9700 285.0000 1.0000
52.9800 321.0000 1.0000
52.9900 279.0000 1.0000
53.0000 271.0000 1.0000
53.0100 277.0000 1.0000
53.0200 253.0000 1.0000
53.0300 279.0000 1.0000
53.0400 275.0000 1.0000
53.0500 270.0000 1.0000
53.0600 311.0000 1.0000
53.0700 304.0000 1.0000
53.0800 291.0000 1.0000
53.0900 284.0000 1.0000
53.1000 291.0000 1.0000
53.1100 278.0000 1.0000
53.1200 281.0000 1.0000
53.1300 290.0000 1.0000
53.1400 287.0000 1.0000
53.1500 307.0000 1.0000
53.1600 268.0000 1.0000
53.1700 303.0000 1.0000
53.1800 288.0000 1.0000
53.1900 263.0000 1.0000
53.2000 269.0000 1.0000
53.2100 271.0000 1.0000
53.2200 302.0000 1.0000
53.2300 302.0000 1.0000
53.2400 291.0000 1.0000
53.2500 291.0000 1.0000
53.2600 290.0000 1.0000
53.2700 251.0000 1.0000
53.2800 254.0000 1.0000
53.2900 278.0000 1.0000
53.3000 281.0000 1.0000
53.3100 300.0000 1.0000
53.3200 297.0000 1.0000
53.3300 271.0000 1.0000
53.3400 253.0000 1.0000
53.3500 255.0000 1.0000
53.3600 280.0000 1.0000
53.3700 254.0000 1.0000
53.3800 297.0000 1.0000
53.3900 281.0000 1.0000
53.4000 260.0000 1.0000
53.4100 247.0000 1.0000
53.4200 266.0000 1.0000
53.4300 262.0000 1.0000
53.4400 241.0000 1.0000
53.4500 265.0000 1.0000
53.4600 280.0000 1.0000
53.4700 241.0000 1.0000
53.4800 263.0000 1.0000
53.4900 278.0000 1.0000
53.5000 295.0000 1.0000
53.5100 275.0000 1.0000
53.5200 288.0000 1.0000
53.5300 274.0000 1.0000
53.5400 273.0000 1.0000
53.5500 268.0000 1.0000
53.5600 255.0000 1.0000
53.5700 262.0000 1.0000
53.5800 256.0000 1.0000
53.5900 245.0000 1.0000
53.6000 277.0000 1.0000
53.6100 250.0000 1.0000
53.6200 248.0000 1.0000
53.6300 269.0000 1.0000
53.6400 248.0000 1.0000
53.6500 253.0000 1.0000
53.6600 250.0000 1.0000
53.6700 261.0000 1.0000
53.6800 276.0000 1.0000
53.6900 265.0000 1.0000
53.7000 270.0000 1.0000
53.7100 269.0000 1.0000
53.7200 251.0000 1.0000
53.7300 276.0000 1.0000
53.7400 252.0000 1.0000
53.7500 248.0000 1.0000
53.7600 295.0000 1.0000
53.7700 265.0000 1.0000
53.7800 269.0000 1.0000
53.7900 283.0000 1.0000
53.8000 285.0000 1.0000
53.8100 247.0000 1.0000
53.8200 292.0000 1.0000
53.8300 254.0000 1.0000
53.8400 270.0000 1.0000
53.8500 276.0000 1.0000
53.8600 289.0000 1.0000
53.8700 277.0000 1.0000
53.8800 252.0000 1.0000
53.8900 258.0000 1.0000
53.9000 263.0000 1.0000
53.9100 241.0000 1.0000
53.9200 296.0000 1.0000
53.9300 268.0000 1.0000
53.9400 258.0000 1.0000
53.9500 266.0000 1.0000
53.9600 265.0000 1.0000
53.9700 264.0000 1.0000
53.9800 270.0000 1.0000
53.9900 262.0000 1.0000
54.0000 261.0000 1.0000
54.0100 257.0000 1.0000
54.0200 263.0000 1.0000
54.0300 260.0000 1.0000
54.0400 282.0000 1.0000
54.0500 243.0000 1.0000
54.0600 259.0000 1.0000
54.0700 250.0000 1.0000
54.0800 249.0000 1.0000
54.0900 256.0000 1.0000
54.1000 251.0000 1.0000
54.1100 275.0000 1.0000
54.1200 261.0000 1.0000
54.1300 289.0000 1.0000
54.1400 296.0000 1.0000
54.1500 266.0000 1.0000
54.1600 261.0000 1.0000
54.1700 286.0000 1.0000
54.1800 263.0000 1.0000
54.1900 265.0000 1.0000
54.2000 261.0000 1.0000
54.2100 265.0000 1.0000
54.2200 263.0000 1.0000
54.2300 263.0000 1.0000
54.2400 271.0000 1.0000
54.2500 281.0000 1.0000
54.2600 275.0000 1.0000
54.2700 280.0000 1.0000
54.2800 252.0000 1.0000
54.2900 272.0000 1.0000
54.3000 260.0000 1.0000
54.3100 254.0000 1.0000
54.3200 243.0000 1.0000
54.3300 276.0000 1.0000
54.3400 263.0000 1.0000
54.3500 253.0000 1.0000
54.3600 279.0000 1.0000
54.3700 263.0000 1.0000
54.3800 260.0000 1.0000
54.3900 293.0000 1.0000
54.4000 248.0000 1.0000
54.4100 251.0000 1.0000
54.4200 252.0000 1.0000
54.4300 262.0000 1.0000
54.4400 273.0000 1.0000
54.4500 252.0000 1.0000
54.4600 270.0000 1.0000
54.4700 275.0000 1.0000
54.4800 281.0000 1.0000
54.4900 278.0000 1.0000
54.5000 269.0000 1.0000
54.5100 262.0000 1.0000
54.5200 253.0000 1.0000
54.5300 245.0000 1.0000
54.5400 270.0000 1.0000
54.5500 282.0000 1.0000
54.5600 252.0000 1.0000
54.5700 263.0000 1.0000
54.5800 256.0000 1.0000
54.5900 258.0000 1.0000
54.6000 288.0000 1.0000
54.6100 246.0000 1.0000
54.6200 264.0000 1.0000
54.6300 283.0000 1.0000
54.6400 308.0000 1.0000
54.6500 269.0000 1.0000
54.6600 290.0000 1.0000
54.6700 272.0000 1.0000
54.6800 272.0000 1.0000
54.6900 297.0000 1.0000
54.7000 288.0000 1.0000
54.7100 271.0000 1.0000
54.7200 254.0000 1.0000
54.7300 278.0000 1.0000
54.7400 261.0000 1.0000
54.7500 255.0000 1.0000
54.7600 297.0000 1.0000
54.7700 264.0000 1.0000
54.7800 251.0000 1.0000
54.7900 282.0000 1.0000
54.8000 282.0000 1.0000
54.8100 290.0000 1.0000
54.8200 286.0000 1.0000
54.8300 282.0000 1.0000
54.8400 283.0000 1.0000
54.8500 276.0000 1.0000
54.8600 292.0000 1.0000
54.8700 281.0000 1.0000
54.8800 281.0000 1.0000
54.8900 270.0000 1.0000
54.9000 287.0000 1.0000
54.9100 284.0000 1.0000
54.9200 296.0000 1.0000
54.9300 308.0000 1.0000
54.9400 298.0000 1.0000
54.9500 287.0000 1.0000
54.9600 302.0000 1.0000
54.9700 290.0000 1.0000
54.9800 300.0000 1.0000
54.9900 291.0000 1.0000
55.0000 296.0000 1.0000
55.0100 282.0000 1.0000
55.0200 310.0000 1.0000
55.0300 269.0000 1.0000
55.0400 299.0000 1.0000
55.0500 302.0000 1.0000
55.0600 297.0000 1.0000
55.0700 295.0000 1.0000
55.0800 292.0000 1.0000
55.0900 307.0000 1.0000
55.1000 300.0000 1.0000
55.1100 304.0000 1.0000
55.1200 303.0000 1.0000
55.1300 320.0000 1.0000
55.1400 330.0000 1.0000
55.1500 352.0000 1.0000
55.1600 343.0000 1.0000
55.1700 347.0000 1.0000
55.1800 369.0000 1.0000
55.1900 350.0000 1.0000
55.2000 373.0000 1.0000
55.2100 413.0000 1.0000
55.2200 371.0000 1.0000
55.2300 404.0000 1.0000
55.2400 412.0000 1.0000
55.2500 426.0000 1.0000
55.2600 421.0000 1.0000
55.2700 379.0000 1.0000
55.2800 418.0000 1.0000
55.2900 416.0000 1.0000
55.3000 417.0000 1.0000
55.3100 404.0000 1.0000
55.3200 406.0000 1.0000
55.3300 379.0000 1.0000
55.3400 414.0000 1.0000
55.3500 420.0000 1.0000
55.3600 386.0000 1.0000
55.3700 390.0000 1.0000
55.3800 406.0000 1.0000
55.3900 403.0000 1.0000
55.4000 382.0000 1.0000
55.4100 393.0000 1.0000
55.4200 414.0000 1.0000
55.4300 337.0000 1.0000
55.4400 355.0000 1.0000
55.4500 372.0000 1.0000
55.4600 347.0000 1.0000
55.4700 352.0000 1.0000
55.4800 328.0000 1.0000
55.4900 339.0000 1.0000
55.5000 341.0000 1.0000
55.5100 344.0000 1.0000
55.5200 315.0000 1.0000
55.5300 350.0000 1.0000
55.5400 340.0000 1.0000
55.5500 316.0000 1.0000
55.5600 309.0000 1.0000
55.5700 329.0000 1.0000
55.5800 308.0000 1.0000
55.5900 307.0000 1.0000
55.6000 285.0000 1.0000
55.6100 296.0000 1.0000
55.6200 277.0000 1.0000
55.6300 271.0000 1.0000
55.6400 270.0000 1.0000
55.6500 276.0000 1.0000
55.6600 294.0000 1.0000
55.6700 287.0000 1.0000
55.6800 263.0000 1.0000
55.6900 270.0000 1.0000
55.7000 262.0000 1.0000
55.7100 280.0000 1.0000
55.7200 271.0000 1.0000
55.7300 272.0000 1.0000
55.7400 280.0000 1.0000
55.7500 256.0000 1.0000
55.7600 270.0000 1.0000
55.7700 256.0000 1.0000
55.7800 244.0000 1.0000
55.7900 296.0000 1.0000
55.8000 260.0000 1.0000
55.8100 263.0000 1.0000
55.8200 255.0000 1.0000
55.8300 257.0000 1.0000
55.8400 225.0000 1.0000
55.8500 274.0000 1.0000
55.8600 255.0000 1.0000
55.8700 248.0000 1.0000
55.8800 259.0000 1.0000
55.8900 288.0000 1.0000
55.9000 264.0000 1.0000
55.9100 277.0000 1.0000
55.9200 270.0000 1.0000
55.9300 225.0000 1.0000
55.9400 259.0000 1.0000
55.9500 256.0000 1.0000
55.9600 262.0000 1.0000
55.9700 273.0000 1.0000
55.9800 264.0000 1.0000
55.9900 260.0000 1.0000
56.0000 265.0000 1.0000
56.0100 281.0000 1.0000
56.0200 267.0000 1.0000
56.0300 264.0000 1.0000
56.0400 259.0000 1.0000
56.0500 254.0000 1.0000
56.0600 276.0000 1.0000
56.0700 251.0000 1.0000
56.0800 242.0000 1.0000
56.0900 252.0000 1.0000
56.1000 249.0000 1.0000
56.1100 235.0000 1.0000
56.1200 249.0000 1.0000
56.1300 284.0000 1.0000
56.1400 251.0000 1.0000
56.1500 260.0000 1.0000
56.1600 278.0000 1.0000
56.1700 260.0000 1.0000
56.1800 247.0000 1.0000
56.1900 255.0000 1.0000
56.2000 239.0000 1.0000
56.2100 249.0000 1.0000
56.2200 262.0000 1.0000
56.2300 258.0000 1.0000
56.2400 254.0000 1.0000
56.2500 277.0000 1.0000
56.2600 228.0000 1.0000
56.2700 240.0000 1.0000
56.2800 246.0000 1.0000
56.2900 273.0000 1.0000
56.3000 289.0000 1.0000
56.3100 260.0000 1.0000
56.3200 250.0000 1.0000
56.3300 250.0000 1.0000
56.3400 266.0000 1.0000
56.3500 280.0000 1.0000
56.3600 253.0000 1.0000
56.3700 242.0000 1.0000
56.3800 269.0000 1.0000
56.3900 250.0000 1.0000
56.4000 259.0000 1.0000
56.4100 233.0000 1.0000
56.4200 235.0000 1.0000
56.4300 278.0000 1.0000
56.4400 237.0000 1.0000
56.4500 257.0000 1.0000
56.4600 238.0000 1.0000
56.4700 220.0000 1.0000
56.4800 234.0000 1.0000
56.4900 248.0000 1.0000
56.5000 257.0000 1.0000
56.5100 252.0000 1.0000
56.5200 257.0000 1.0000
56.5300 249.0000 1.0000
56.5400 280.0000 1.0000
56.5500 275.0000 1.0000
56.5600 244.0000 1.0000
56.5700 262.0000 1.0000
56.5800 238.0000 1.0000
56.5900 257.0000 1.0000
56.6000 298.0000 1.0000
56.6100 252.0000 1.0000
56.6200 246.0000 1.0000
56.6300 253.0000 1.0000
56.6400 273.0000 1.0000
56.6500 250.0000 1.0000
56.6600 240.0000 1.0000
56.6700 236.0000 1.0000
56.6800 259.0000 1.0000
56.6900 255.0000 1.0000
56.7000 257.0000 1.0000
56.7100 291.0000 1.0000
56.7200 272.0000 1.0000
56.7300 260.0000 1.0000
56.7400 270.0000 1.0000
56.7500 260.0000 1.0000
56.7600 276.0000 1.0000
56.7700 249.0000 1.0000
56.7800 251.0000 1.0000
56.7900 234.0000 1.0000
56.8000 263.0000 1.0000
56.8100 247.0000 1.0000
56.8200 234.0000 1.0000
56.8300 268.0000 1.0000
56.8400 242.0000 1.0000
56.8500 249.0000 1.0000
56.8600 246.0000 1.0000
56.8700 247.0000 1.0000
56.8800 263.0000 1.0000
56.8900 259.0000 1.0000
56.9000 275.0000 1.0000
56.9100 233.0000 1.0000
56.9200 245.0000 1.0000
56.9300 247.0000 1.0000
56.9400 247.0000 1.0000
56.9500 253.0000 1.0000
56.9600 274.0000 1.0000
56.9700 236.0000 1.0000
56.9800 236.0000 1.0000
56.9900 246.0000 1.0000
57.0000 244.0000 1.0000
57.0100 260.0000 1.0000
57.0200 268.0000 1.0000
57.0300 261.0000 1.0000
57.0400 231.0000 1.0000
57.0500 235.0000 1.0000
57.0600 253.0000 1.0000
57.0700 253.0000 1.0000
57.0800 265.0000 1.0000
57.0900 242.0000 1.0000
57.1000 220.0000 1.0000
57.1100 225.0000 1.0000
57.1200 278.0000 1.0000
57.1300 256.0000 1.0000
57.1400 273.0000 1.0000
57.1500 256.0000 1.0000
57.1600 238.0000 1.0000
57.1700 255.0000 1.0000
57.1800 251.0000 1.0000
57.1900 273.0000 1.0000
57.2000 251.0000 1.0000
57.2100 265.0000 1.0000
57.2200 248.0000 1.0000
57.2300 272.0000 1.0000
57.2400 265.0000 1.0000
57.2500 242.0000 1.0000
57.2600 264.0000 1.0000
57.2700 254.0000 1.0000
57.2800 251.0000 1.0000
57.2900 239.0000 1.0000
57.3000 249.0000 1.0000
57.3100 267.0000 1.0000
57.3200 263.0000 1.0000
57.3300 261.0000 1.0000
57.3400 245.0000 1.0000
57.3500 242.0000 1.0000
57.3600 232.0000 1.0000
57.3700 265.0000 1.0000
57.3800 262.0000 1.0000
57.3900 253.0000 1.0000
57.4000 248.0000 1.0000
57.4100 261.0000 1.0000
57.4200 256.0000 1.0000
57.4300 232.0000 1.0000
57.4400 253.0000 1.0000
57.4500 251.0000 1.0000
57.4600 244.0000 1.0000
57.4700 245.0000 1.0000
57.4800 230.0000 1.0000
57.4900 239.0000 1.0000
57.5000 271.0000 1.0000
57.5100 248.0000 1.0000
57.5200 273.0000 1.0000
57.5300 278.0000 1.0000
57.5400 265.0000 1.0000
57.5500 268.0000 1.0000
57.5600 264.0000 1.0000
57.5700 241.0000 1.0000
57.5800 234.0000 1.0000
57.5900 236.0000 1.0000
57.6000 256.0000 1.0000
57.6100 256.0000 1.0000
57.6200 231.0000 1.0000
57.6300 270.0000 1.0000
57.6400 243.0000 1.0000
57.6500 256.0000 1.0000
57.6600 244.0000 1.0000
57.6700 268.0000 1.0000
57.6800 233.0000 1.0000
57.6900 243.0000 1.0000
57.7000 225.0000 1.0000
57.7100 243.0000 1.0000
57.7200 263.0000 1.0000
57.7300 262.0000 1.0000
57.7400 231.0000 1.0000
57.7500 222.0000 1.0000
57.7600 229.0000 1.0000
57.7700 244.0000 1.0000
57.7800 239.0000 1.0000
57.7900 269.0000 1.0000
57.8000 269.0000 1.0000
57.8100 252.0000 1.0000
57.8200 245.0000 1.0000
57.8300 241.0000 1.0000
57.8400 265.0000 1.0000
57.8500 282.0000 1.0000
57.8600 264.0000 1.0000
57.8700 261.0000 1.0000
57.8800 264.0000 1.0000
57.8900 267.0000 1.0000
57.9000 227.0000 1.0000
57.9100 261.0000 1.0000
57.9200 245.0000 1.0000
57.9300 249.0000 1.0000
57.9400 263.0000 1.0000
57.9500 243.0000 1.0000
57.9600 249.0000 1.0000
57.9700 269.0000 1.0000
57.9800 244.0000 1.0000
57.9900 241.0000 1.0000
58.0000 241.0000 1.0000
58.0100 257.0000 1.0000
58.0200 252.0000 1.0000
58.0300 254.0000 1.0000
58.0400 279.0000 1.0000
58.0500 249.0000 1.0000
58.0600 260.0000 1.0000
58.0700 291.0000 1.0000
58.0800 255.0000 1.0000
58.0900 254.0000 1.0000
58.1000 269.0000 1.0000
58.1100 247.0000 1.0000
58.1200 262.0000 1.0000
58.1300 258.0000 1.0000
58.1400 275.0000 1.0000
58.1500 240.0000 1.0000
58.1600 254.0000 1.0000
58.1700 265.0000 1.0000
58.1800 260.0000 1.0000
58.1900 246.0000 1.0000
58.2000 276.0000 1.0000
58.2100 247.0000 1.0000
58.2200 234.0000 1.0000
58.2300 252.0000 1.0000
58.2400 280.0000 1.0000
58.2500 256.0000 1.0000
58.2600 266.0000 1.0000
58.2700 265.0000 1.0000
58.2800 249.0000 1.0000
58.2900 233.0000 1.0000
58.3000 252.0000 1.0000
58.3100 253.0000 1.0000
58.3200 263.0000 1.0000
58.3300 251.0000 1.0000
58.3400 258.0000 1.0000
58.3500 246.0000 1.0000
58.3600 250.0000 1.0000
58.3700 274.0000 1.0000
58.3800 265.0000 1.0000
58.3900 246.0000 1.0000
58.4000 259.0000 1.0000
58.4100 258.0000 1.0000
58.4200 233.0000 1.0000
58.4300 244.0000 1.0000
58.4400 243.0000 1.0000
58.4500 256.0000 1.0000
58.4600 254.0000 1.0000
58.4700 271.0000 1.0000
58.4800 249.0000 1.0000
58.4900 274.0000 1.0000
58.5000 267.0000 1.0000
58.5100 272.0000 1.0000
58.5200 264.0000 1.0000
58.5300 266.0000 1.0000
58.5400 254.0000 1.0000
58.5500 257.0000 1.0000
58.5600 215.0000 1.0000
58.5700 278.0000 1.0000
58.5800 261.0000 1.0000
58.5900 245.0000 1.0000
58.6000 270.0000 1.0000
58.6100 239.0000 1.0000
58.6200 258.0000 1.0000
58.6300 243.0000 1.0000
58.6400 228.0000 1.0000
58.6500 245.0000 1.0000
58.6600 271.0000 1.0000
58.6700 290.0000 1.0000
58.6800 263.0000 1.0000
58.6900 275.0000 1.0000
58.7000 242.0000 1.0000
58.7100 242.0000 1.0000
58.7200 234.0000 1.0000
58.7300 255.0000 1.0000
58.7400 250.0000 1.0000
58.7500 234.0000 1.0000
58.7600 231.0000 1.0000
58.7700 227.0000 1.0000
58.7800 254.0000 1.0000
58.7900 264.0000 1.0000
58.8000 264.0000 1.0000
58.8100 264.0000 1.0000
58.8200 279.0000 1.0000
58.8300 260.0000 1.0000
58.8400 271.0000 1.0000
58.8500 231.0000 1.0000
58.8600 245.0000 1.0000
58.8700 256.0000 1.0000
58.8800 234.0000 1.0000
58.8900 240.0000 1.0000
58.9000 226.0000 1.0000
58.9100 249.0000 1.0000
58.9200 253.0000 1.0000
58.9300 270.0000 1.0000
58.9400 239.0000 1.0000
58.9500 259.0000 1.0000
58.9600 230.0000 1.0000
58.9700 230.0000 1.0000
58.9800 256.0000 1.0000
58.9900 258.0000 1.0000
59.0000 247.0000 1.0000
59.0100 258.0000 1.0000
59.0200 258.0000 1.0000
59.0300 233.0000 1.0000
59.0400 229.0000 1.0000
59.0500 244.0000 1.0000
59.0600 248.0000 1.0000
59.0700 234.0000 1.0000
59.0800 257.0000 1.0000
59.0900 299.0000 1.0000
59.1000 259.0000 1.0000
59.1100 238.0000 1.0000
59.1200 255.0000 1.0000
59.1300 252.0000 1.0000
59.1400 289.0000 1.0000
59.1500 250.0000 1.0000
59.1600 283.0000 1.0000
59.1700 266.0000 1.0000
59.1800 247.0000 1.0000
59.1900 242.0000 1.0000
59.2000 234.0000 1.0000
59.2100 239.0000 1.0000
59.2200 237.0000 1.0000
59.2300 255.0000 1.0000
59.2400 268.0000 1.0000
59.2500 263.0000 1.0000
59.2600 263.0000 1.0000
59.2700 236.0000 1.0000
59.2800 274.0000 1.0000
59.2900 250.0000 1.0000
59.3000 234.0000 1.0000
59.3100 244.0000 1.0000
59.3200 264.0000 1.0000
59.3300 278.0000 1.0000
59.3400 232.0000 1.0000
59.3500 214.0000 1.0000
59.3600 219.0000 1.0000
59.3700 258.0000 1.0000
59.3800 250.0000 1.0000
59.3900 230.0000 1.0000
59.4000 250.0000 1.0000
59.4100 256.0000 1.0000
59.4200 252.0000 1.0000
59.4300 244.0000 1.0000
59.4400 274.0000 1.0000
59.4500 240.0000 1.0000
59.4600 233.0000 1.0000
59.4700 261.0000 1.0000
59.4800 259.0000 1.0000
59.4900 255.0000 1.0000
59.5000 259.0000 1.0000
59.5100 270.0000 1.0000
59.5200 263.0000 1.0000
59.5300 228.0000 1.0000
59.5400 248.0000 1.0000
59.5500 262.0000 1.0000
59.5600 251.0000 1.0000
59.5700 226.0000 1.0000
59.5800 258.0000 1.0000
59.5900 250.0000 1.0000
59.6000 264.0000 1.0000
59.6100 276.0000 1.0000
59.6200 248.0000 1.0000
59.6300 265.0000 1.0000
59.6400 259.0000 1.0000
59.6500 244.0000 1.0000
59.6600 250.0000 1.0000
59.6700 276.0000 1.0000
59.6800 253.0000 1.0000
59.6900 228.0000 1.0000
59.7000 225.0000 1.0000
59.7100 247.0000 1.0000
59.7200 252.0000 1.0000
59.7300 262.0000 1.0000
59.7400 246.0000 1.0000
59.7500 274.0000 1.0000
59.7600 248.0000 1.0000
59.7700 236.0000 1.0000
59.7800 234.0000 1.0000
59.7900 254.0000 1.0000
59.8000 263.0000 1.0000
59.8100 261.0000 1.0000
59.8200 271.0000 1.0000
59.8300 218.0000 1.0000
59.8400 235.0000 1.0000
59.8500 288.0000 1.0000
59.8600 238.0000 1.0000
59.8700 245.0000 1.0000
59.8800 256.0000 1.0000
59.8900 247.0000 1.0000
59.9000 224.0000 1.0000
59.9100 243.0000 1.0000
59.9200 253.0000 1.0000
59.9300 262.0000 1.0000
59.9400 251.0000 1.0000
59.9500 273.0000 1.0000
59.9600 257.0000 1.0000
59.9700 262.0000 1.0000
59.9800 273.0000 1.0000
59.9900 248.0000 1.0000
60.0000 276.0000 1.0000
60.0100 276.0000 1.0000
60.0200 254.0000 1.0000
60.0300 256.0000 1.0000
60.0400 224.0000 1.0000
60.0500 243.0000 1.0000
60.0600 241.0000 1.0000
60.0700 257.0000 1.0000
60.0800 255.0000 1.0000
60.0900 244.0000 1.0000
60.1000 232.0000 1.0000
60.1100 250.0000 1.0000
60.1200 235.0000 1.0000
60.1300 258.0000 1.0000
60.1400 251.0000 1.0000
60.1500 258.0000 1.0000
60.1600 257.0000 1.0000
60.1700 265.0000 1.0000
60.1800 245.0000 1.0000
60.1900 224.0000 1.0000
60.2000 201.0000 1.0000
60.2100 250.0000 1.0000
60.2200 242.0000 1.0000
60.2300 231.0000 1.0000
60.2400 247.0000 1.0000
60.2500 233.0000 1.0000
60.2600 247.0000 1.0000
60.2700 233.0000 1.0000
60.2800 265.0000 1.0000
60.2900 231.0000 1.0000
60.3000 226.0000 1.0000
60.3100 242.0000 1.0000
60.3200 239.0000 1.0000
60.3300 254.0000 1.0000
60.3400 256.0000 1.0000
60.3500 273.0000 1.0000
60.3600 236.0000 1.0000
60.3700 244.0000 1.0000
60.3800 257.0000 1.0000
60.3900 250.0000 1.0000
60.4000 245.0000 1.0000
60.4100 247.0000 1.0000
60.4200 261.0000 1.0000
60.4300 269.0000 1.0000
60.4400 244.0000 1.0000
60.4500 254.0000 1.0000
60.4600 269.0000 1.0000
60.4700 258.0000 1.0000
60.4800 265.0000 1.0000
60.4900 249.0000 1.0000
60.5000 262.0000 1.0000
60.5100 254.0000 1.0000
60.5200 258.0000 1.0000
60.5300 240.0000 1.0000
60.5400 268.0000 1.0000
60.5500 246.0000 1.0000
60.5600 242.0000 1.0000
60.5700 265.0000 1.0000
60.5800 248.0000 1.0000
60.5900 242.0000 1.0000
60.6000 260.0000 1.0000
60.6100 253.0000 1.0000
60.6200 249.0000 1.0000
60.6300 258.0000 1.0000
60.6400 266.0000 1.0000
60.6500 269.0000 1.0000
60.6600 248.0000 1.0000
60.6700 246.0000 1.0000
60.6800 223.0000 1.0000
60.6900 250.0000 1.0000
60.7000 257.0000 1.0000
60.7100 251.0000 1.0000
60.7200 257.0000 1.0000
60.7300 274.0000 1.0000
60.7400 239.0000 1.0000
60.7500 269.0000 1.0000
60.7600 248.0000 1.0000
60.7700 264.0000 1.0000
60.7800 260.0000 1.0000
60.7900 278.0000 1.0000
60.8000 273.0000 1.0000
60.8100 276.0000 1.0000
60.8200 237.0000 1.0000
60.8300 240.0000 1.0000
60.8400 236.0000 1.0000
60.8500 279.0000 1.0000
60.8600 242.0000 1.0000
60.8700 247.0000 1.0000
60.8800 258.0000 1.0000
60.8900 249.0000 1.0000
60.9000 237.0000 1.0000
60.9100 248.0000 1.0000
60.9200 268.0000 1.0000
60.9300 264.0000 1.0000
60.9400 247.0000 1.0000
60.9500 258.0000 1.0000
60.9600 247.0000 1.0000
60.9700 264.0000 1.0000
60.9800 254.0000 1.0000
60.9900 235.0000 1.0000
61.0000 248.0000 1.0000
61.0100 245.0000 1.0000
61.0200 261.0000 1.0000
61.0300 240.0000 1.0000
61.0400 261.0000 1.0000
61.0500 248.0000 1.0000
61.0600 246.0000 1.0000
61.0700 243.0000 1.0000
61.0800 251.0000 1.0000
61.0900 253.0000 1.0000
61.1000 243.0000 1.0000
61.1100 247.0000 1.0000
61.1200 261.0000 1.0000
61.1300 261.0000 1.0000
61.1400 240.0000 1.0000
61.1500 266.0000 1.0000
61.1600 265.0000 1.0000
61.1700 244.0000 1.0000
61.1800 260.0000 1.0000
61.1900 232.0000 1.0000
61.2000 251.0000 1.0000
61.2100 244.0000 1.0000
61.2200 243.0000 1.0000
61.2300 262.0000 1.0000
61.2400 241.0000 1.0000
61.2500 241.0000 1.0000
61.2600 255.0000 1.0000
61.2700 240.0000 1.0000
61.2800 242.0000 1.0000
61.2900 237.0000 1.0000
61.3000 257.0000 1.0000
61.3100 230.0000 1.0000
61.3200 251.0000 1.0000
61.3300 248.0000 1.0000
61.3400 250.0000 1.0000
61.3500 253.0000 1.0000
61.3600 220.0000 1.0000
61.3700 259.0000 1.0000
61.3800 256.0000 1.0000
61.3900 233.0000 1.0000
61.4000 249.0000 1.0000
61.4100 254.0000 1.0000
61.4200 277.0000 1.0000
61.4300 266.0000 1.0000
61.4400 261.0000 1.0000
61.4500 261.0000 1.0000
61.4600 253.0000 1.0000
61.4700 240.0000 1.0000
61.4800 232.0000 1.0000
61.4900 252.0000 1.0000
61.5000 264.0000 1.0000
61.5100 223.0000 1.0000
61.5200 286.0000 1.0000
61.5300 231.0000 1.0000
61.5400 253.0000 1.0000
61.5500 242.0000 1.0000
61.5600 259.0000 1.0000
61.5700 263.0000 1.0000
61.5800 260.0000 1.0000
61.5900 263.0000 1.0000
61.6000 254.0000 1.0000
61.6100 253.0000 1.0000
61.6200 274.0000 1.0000
61.6300 245.0000 1.0000
61.6400 248.0000 1.0000
61.6500 267.0000 1.0000
61.6600 275.0000 1.0000
61.6700 250.0000 1.0000
61.6800 269.0000 1.0000
61.6900 246.0000 1.0000
61.7000 267.0000 1.0000
61.7100 254.0000 1.0000
61.7200 249.0000 1.0000
61.7300 270.0000 1.0000
61.7400 273.0000 1.0000
61.7500 278.0000 1.0000
61.7600 276.0000 1.0000
61.7700 266.0000 1.0000
61.7800 276.0000 1.0000
61.7900 274.0000 1.0000
61.8000 265.0000 1.0000
61.8100 273.0000 1.0000
61.8200 257.0000 1.0000
61.8300 267.0000 1.0000
61.8400 283.0000 1.0000
61.8500 300.0000 1.0000
61.8600 264.0000 1.0000
61.8700 281.0000 1.0000
61.8800 266.0000 1.0000
61.8900 265.0000 1.0000
61.9000 272.0000 1.0000
61.9100 276.0000 1.0000
61.9200 314.0000 1.0000
61.9300 285.0000 1.0000
61.9400 300.0000 1.0000
61.9500 294.0000 1.0000
61.9600 312.0000 1.0000
61.9700 293.0000 1.0000
61.9800 293.0000 1.0000
61.9900 301.0000 1.0000
62.0000 351.0000 1.0000
62.0100 314.0000 1.0000
62.0200 334.0000 1.0000
62.0300 332.0000 1.0000
62.0400 332.0000 1.0000
62.0500 346.0000 1.0000
62.0600 386.0000 1.0000
62.0700 396.0000 1.0000
62.0800 386.0000 1.0000
62.0900 392.0000 1.0000
62.1000 397.0000 1.0000
62.1100 389.0000 1.0000
62.1200 415.0000 1.0000
62.1300 424.0000 1.0000
62.1400 460.0000 1.0000
62.1500 464.0000 1.0000
62.1600 497.0000 1.0000
62.1700 501.0000 1.0000
62.1800 483.0000 1.0000
62.1900 498.0000 1.0000
62.2000 523.0000 1.0000
62.2100 537.0000 1.0000
62.2200 556.0000 1.0000
62.2300 565.0000 1.0000
62.2400 576.0000 1.0000
62.2500 552.0000 1.0000
62.2600 554.0000 1.0000
62.2700 540.0000 1.0000
62.2800 572.0000 1.0000
62.2900 538.0000 1.0000
62.3000 593.0000 1.0000
62.3100 596.0000 1.0000
62.3200 535.0000 1.0000
62.3300 563.0000 1.0000
62.3400 545.0000 1.0000
62.3500 526.0000 1.0000
62.3600 519.0000 1.0000
62.3700 556.0000 1.0000
62.3800 569.0000 1.0000
62.3900 541.0000 1.0000
62.4000 534.0000 1.0000
62.4100 518.0000 1.0000
62.4200 507.0000 1.0000
62.4300 491.0000 1.0000
62.4400 503.0000 1.0000
62.4500 520.0000 1.0000
62.4600 503.0000 1.0000
62.4700 515.0000 1.0000
62.4800 459.0000 1.0000
62.4900 415.0000 1.0000
62.5000 460.0000 1.0000
62.5100 475.0000 1.0000
62.5200 464.0000 1.0000
62.5300 428.0000 1.0000
62.5400 409.0000 1.0000
62.5500 395.0000 1.0000
62.5600 371.0000 1.0000
62.5700 408.0000 1.0000
62.5800 400.0000 1.0000
62.5900 373.0000 1.0000
62.6000 363.0000 1.0000
62.6100 381.0000 1.0000
62.6200 351.0000 1.0000
62.6300 335.0000 1.0000
62.6400 357.0000 1.0000
62.6500 376.0000 1.0000
62.6600 337.0000 1.0000
62.6700 351.0000 1.0000
62.6800 351.0000 1.0000
62.6900 334.0000 1.0000
62.7000 327.0000 1.0000
62.7100 312.0000 1.0000
62.7200 314.0000 1.0000
62.7300 310.0000 1.0000
62.7400 301.0000 1.0000
62.7500 322.0000 1.0000
62.7600 301.0000 1.0000
62.7700 282.0000 1.0000
62.7800 301.0000 1.0000
62.7900 286.0000 1.0000
62.8000 282.0000 1.0000
62.8100 273.0000 1.0000
62.8200 292.0000 1.0000
62.8300 291.0000 1.0000
62.8400 284.0000 1.0000
62.8500 301.0000 1.0000
62.8600 303.0000 1.0000
62.8700 285.0000 1.0000
62.8800 272.0000 1.0000
62.8900 265.0000 1.0000
62.9000 315.0000 1.0000
62.9100 295.0000 1.0000
62.9200 270.0000 1.0000
62.9300 279.0000 1.0000
62.9400 265.0000 1.0000
62.9500 279.0000 1.0000
62.9600 299.0000 1.0000
62.9700 255.0000 1.0000
62.9800 280.0000 1.0000
62.9900 271.0000 1.0000
63.0000 270.0000 1.0000
63.0100 294.0000 1.0000
63.0200 267.0000 1.0000
63.0300 311.0000 1.0000
63.0400 272.0000 1.0000
63.0500 288.0000 1.0000
63.0600 270.0000 1.0000
63.0700 266.0000 1.0000
63.0800 247.0000 1.0000
63.0900 275.0000 1.0000
63.1000 261.0000 1.0000
63.1100 253.0000 1.0000
63.1200 260.0000 1.0000
63.1300 270.0000 1.0000
63.1400 297.0000 1.0000
63.1500 265.0000 1.0000
63.1600 284.0000 1.0000
63.1700 277.0000 1.0000
63.1800 274.0000 1.0000
63.1900 271.0000 1.0000
63.2000 283.0000 1.0000
63.2100 273.0000 1.0000
63.2200 254.0000 1.0000
63.2300 268.0000 1.0000
63.2400 288.0000 1.0000
63.2500 273.0000 1.0000
63.2600 273.0000 1.0000
63.2700 270.0000 1.0000
63.2800 258.0000 1.0000
63.2900 289.0000 1.0000
63.3000 258.0000 1.0000
63.3100 240.0000 1.0000
63.3200 261.0000 1.0000
63.3300 246.0000 1.0000
63.3400 262.0000 1.0000
63.3500 259.0000 1.0000
63.3600 251.0000 1.0000
63.3700 251.0000 1.0000
63.3800 260.0000 1.0000
63.3900 259.0000 1.0000
63.4000 247.0000 1.0000
63.4100 266.0000 1.0000
63.4200 277.0000 1.0000
63.4300 258.0000 1.0000
63.4400 270.0000 1.0000
63.4500 240.0000 1.0000
63.4600 268.0000 1.0000
63.4700 241.0000 1.0000
63.4800 242.0000 1.0000
63.4900 237.0000 1.0000
63.5000 252.0000 1.0000
63.5100 281.0000 1.0000
63.5200 262.0000 1.0000
63.5300 258.0000 1.0000
63.5400 271.0000 1.0000
63.5500 252.0000 1.0000
63.5600 252.0000 1.0000
63.5700 236.0000 1.0000
63.5800 225.0000 1.0000
63.5900 262.0000 1.0000
63.6000 247.0000 1.0000
63.6100 247.0000 1.0000
63.6200 247.0000 1.0000
63.6300 267.0000 1.0000
63.6400 272.0000 1.0000
63.6500 274.0000 1.0000
63.6600 252.0000 1.0000
63.6700 247.0000 1.0000
63.6800 251.0000 1.0000
63.6900 279.0000 1.0000
63.7000 227.0000 1.0000
63.7100 276.0000 1.0000
63.7200 269.0000 1.0000
63.7300 246.0000 1.0000
63.7400 250.0000 1.0000
63.7500 230.0000 1.0000
63.7600 260.0000 1.0000
63.7700 254.0000 1.0000
63.7800 263.0000 1.0000
63.7900 246.0000 1.0000
63.8000 246.0000 1.0000
63.8100 242.0000 1.0000
63.8200 246.0000 1.0000
63.8300 263.0000 1.0000
63.8400 266.0000 1.0000
63.8500 283.0000 1.0000
63.8600 239.0000 1.0000
63.8700 242.0000 1.0000
63.8800 244.0000 1.0000
63.8900 249.0000 1.0000
63.9000 235.0000 1.0000
63.9100 256.0000 1.0000
63.9200 253.0000 1.0000
63.9300 252.0000 1.0000
63.9400 245.0000 1.0000
63.9500 257.0000 1.0000
63.9600 244.0000 1.0000
63.9700 267.0000 1.0000
63.9800 260.0000 1.0000
63.9900 260.0000 1.0000
64.0000 242.0000 1.0000
64.0100 257.0000 1.0000
64.0200 258.0000 1.0000
64.0300 233.0000 1.0000
64.0400 280.0000 1.0000
64.0500 258.0000 1.0000
64.0600 286.0000 1.0000
64.0700 245.0000 1.0000
64.0800 242.0000 1.0000
64.0900 255.0000 1.0000
64.1000 259.0000 1.0000
64.1100 257.0000 1.0000
64.1200 234.0000 1.0000
64.1300 231.0000 1.0000
64.1400 245.0000 1.0000
64.1500 218.0000 1.0000
64.1600 258.0000 1.0000
64.1700 284.0000 1.0000
64.1800 269.0000 1.0000
64.1900 248.0000 1.0000
64.2000 256.0000 1.0000
64.2100 259.0000 1.0000
64.2200 250.0000 1.0000
64.2300 267.0000 1.0000
64.2400 252.0000 1.0000
64.2500 270.0000 1.0000
64.2600 287.0000 1.0000
64.2700 245.0000 1.0000
64.2800 277.0000 1.0000
64.2900 250.0000 1.0000
64.3000 243.0000 1.0000
64.3100 250.0000 1.0000
64.3200 255.0000 1.0000
64.3300 243.0000 1.0000
64.3400 278.0000 1.0000
64.3500 250.0000 1.0000
64.3600 284.0000 1.0000
64.3700 274.0000 1.0000
64.3800 246.0000 1.0000
64.3900 263.0000 1.0000
64.4000 266.0000 1.0000
64.4100 261.0000 1.0000
64.4200 274.0000 1.0000
64.4300 257.0000 1.0000
64.4400 260.0000 1.0000
64.4500 247.0000 1.0000
64.4600 251.0000 1.0000
64.4700 265.0000 1.0000
64.4800 286.0000 1.0000
64.4900 265.0000 1.0000
64.5000 280.0000 1.0000
64.5100 257.0000 1.0000
64.5200 267.0000 1.0000
64.5300 276.0000 1.0000
64.5400 238.0000 1.0000
64.5500 280.0000 1.0000
64.5600 266.0000 1.0000
64.5700 267.0000 1.0000
64.5800 254.0000 1.0000
64.5900 285.0000 1.0000
64.6000 271.0000 1.0000
64.6100 274.0000 1.0000
64.6200 293.0000 1.0000
64.6300 282.0000 1.0000
64.6400 279.0000 1.0000
64.6500 281.0000 1.0000
64.6600 266.0000 1.0000
64.6700 299.0000 1.0000
64.6800 288.0000 1.0000
64.6900 285.0000 1.0000
64.7000 255.0000 1.0000
64.7100 259.0000 1.0000
64.7200 304.0000 1.0000
64.7300 315.0000 1.0000
64.7400 283.0000 1.0000
64.7500 286.0000 1.0000
64.7600 271.0000 1.0000
64.7700 272.0000 1.0000
64.7800 294.0000 1.0000
64.7900 282.0000 1.0000
64.8000 277.0000 1.0000
64.8100 269.0000 1.0000
64.8200 291.0000 1.0000
64.8300 259.0000 1.0000
64.8400 298.0000 1.0000
64.8500 285.0000 1.0000
64.8600 286.0000 1.0000
64.8700 299.0000 1.0000
64.8800 273.0000 1.0000
64.8900 309.0000 1.0000
64.9000 281.0000 1.0000
64.9100 306.0000 1.0000
64.9200 283.0000 1.0000
64.9300 258.0000 1.0000
64.9400 270.0000 1.0000
64.9500 285.0000 1.0000
64.9600 277.0000 1.0000
64.9700 276.0000 1.0000
64.9800 281.0000 1.0000
64.9900 268.0000 1.0000
65.0000 296.0000 1.0000
65.0100 284.0000 1.0000
65.0200 271.0000 1.0000
65.0300 268.0000 1.0000
65.0400 261.0000 1.0000
65.0500 261.0000 1.0000
65.0600 259.0000 1.0000
65.0700 270.0000 1.0000
65.0800 302.0000 1.0000
65.0900 301.0000 1.0000
65.1000 294.0000 1.0000
65.1100 269.0000 1.0000
65.1200 255.0000 1.0000
65.1300 278.0000 1.0000
65.1400 270.0000 1.0000
65.1500 273.0000 1.0000
65.1600 281.0000 1.0000
65.1700 266.0000 1.0000
65.1800 239.0000 1.0000
65.1900 254.0000 1.0000
65.2000 258.0000 1.0000
65.2100 267.0000 1.0000
65.2200 289.0000 1.0000
65.2300 258.0000 1.0000
65.2400 249.0000 1.0000
65.2500 273.0000 1.0000
65.2600 271.0000 1.0000
65.2700 296.0000 1.0000
65.2800 257.0000 1.0000
65.2900 285.0000 1.0000
65.3000 278.0000 1.0000
65.3100 277.0000 1.0000
65.3200 260.0000 1.0000
65.3300 248.0000 1.0000
65.3400 261.0000 1.0000
65.3500 286.0000 1.0000
65.3600 263.0000 1.0000
65.3700 253.0000 1.0000
65.3800 260.0000 1.0000
65.3900 280.0000 1.0000
65.4000 253.0000 1.0000
65.4100 252.0000 1.0000
65.4200 281.0000 1.0000
65.4300 301.0000 1.0000
65.4400 254.0000 1.0000
65.4500 258.0000 1.0000
65.4600 290.0000 1.0000
65.4700 250.0000 1.0000
65.4800 265.0000 1.0000
65.4900 272.0000 1.0000
65.5000 269.0000 1.0000
65.5100 277.0000 1.0000
65.5200 273.0000 1.0000
65.5300 265.0000 1.0000
65.5400 279.0000 1.0000
65.5500 293.0000 1.0000
65.5600 271.0000 1.0000
65.5700 270.0000 1.0000
65.5800 254.0000 1.0000
65.5900 251.0000 1.0000
65.6000 260.0000 1.0000
65.6100 280.0000 1.0000
65.6200 271.0000 1.0000
65.6300 263.0000 1.0000
65.6400 269.0000 1.0000
65.6500 289.0000 1.0000
65.6600 283.0000 1.0000
65.6700 283.0000 1.0000
65.6800 276.0000 1.0000
65.6900 276.0000 1.0000
65.7000 280.0000 1.0000
65.7100 279.0000 1.0000
65.7200 282.0000 1.0000
65.7300 270.0000 1.0000
65.7400 277.0000 1.0000
65.7500 278.0000 1.0000
65.7600 277.0000 1.0000
65.7700 305.0000 1.0000
65.7800 315.0000 1.0000
65.7900 292.0000 1.0000
65.8000 314.0000 1.0000
65.8100 287.0000 1.0000
65.8200 317.0000 1.0000
65.8300 311.0000 1.0000
65.8400 294.0000 1.0000
65.8500 339.0000 1.0000
65.8600 311.0000 1.0000
65.8700 316.0000 1.0000
65.8800 316.0000 1.0000
65.8900 358.0000 1.0000
65.9000 317.0000 1.0000
65.9100 314.0000 1.0000
65.9200 311.0000 1.0000
65.9300 339.0000 1.0000
65.9400 339.0000 1.0000
65.9500 354.0000 1.0000
65.9600 372.0000 1.0000
65.9700 383.0000 1.0000
65.9800 373.0000 1.0000
65.9900 400.0000 1.0000
66.0000 413.0000 1.0000
66.0100 431.0000 1.0000
66.0200 392.0000 1.0000
66.0300 452.0000 1.0000
66.0400 454.0000 1.0000
66.0500 433.0000 1.0000
66.0600 503.0000 1.0000
66.0700 541.0000 1.0000
66.0800 545.0000 1.0000
66.0900 566.0000 1.0000
66.1000 571.0000 1.0000
66.1100 626.0000 1.0000
66.1200 693.0000 1.0000
66.1300 711.0000 1.0000
66.1400 783.0000 1.0000
66.1500 803.0000 1.0000
66.1600 814.0000 1.0000
66.1700 906.0000 1.0000
66.1800 937.0000 1.0000
66.1900 926.0000 1.0000
66.2000 1023.0000 1.0000
66.2100 1051.0000 1.0000
66.2200 1137.0000 1.0000
66.2300 1111.0000 1.0000
66.2400 1109.0000 1.0000
66.2500 1090.0000 1.0000
66.2600 1064.0000 1.0000
66.2700 1111.0000 1.0000
66.2800 1054.0000 1.0000
66.2900 1076.0000 1.0000
66.3000 1042.0000 1.0000
66.3100 1041.0000 1.0000
66.3200 995.0000 1.0000
66.3300 969.0000 1.0000
66.3400 1002.0000 1.0000
66.3500 938.0000 1.0000
66.3600 908.0000 1.0000
66.3700 883.0000 1.0000
66.3800 948.0000 1.0000
66.3900 913.0000 1.0000
66.4000 914.0000 1.0000
66.4100 913.0000 1.0000
66.4200 898.0000 1.0000
66.4300 867.0000 1.0000
66.4400 772.0000 1.0000
66.4500 793.0000 1.0000
66.4600 833.0000 1.0000
66.4700 745.0000 1.0000
66.4800 741.0000 1.0000
66.4900 689.0000 1.0000
66.5000 634.0000 1.0000
66.5100 633.0000 1.0000
66.5200 598.0000 1.0000
66.5300 559.0000 1.0000
66.5400 544.0000 1.0000
66.5500 535.0000 1.0000
66.5600 488.0000 1.0000
66.5700 531.0000 1.0000
66.5800 486.0000 1.0000
66.5900 464.0000 1.0000
66.6000 449.0000 1.0000
66.6100 411.0000 1.0000
66.6200 416.0000 1.0000
66.6300 403.0000 1.0000
66.6400 368.0000 1.0000
66.6500 378.0000 1.0000
66.6600 340.0000 1.0000
66.6700 372.0000 1.0000
66.6800 357.0000 1.0000
66.6900 360.0000 1.0000
66.7000 353.0000 1.0000
66.7100 358.0000 1.0000
66.7200 364.0000 1.0000
66.7300 319.0000 1.0000
66.7400 327.0000 1.0000
66.7500 320.0000 1.0000
66.7600 326.0000 1.0000
66.7700 320.0000 1.0000
66.7800 303.0000 1.0000
66.7900 307.0000 1.0000
66.8000 314.0000 1.0000
66.8100 301.0000 1.0000
66.8200 304.0000 1.0000
66.8300 275.0000 1.0000
66.8400 262.0000 1.0000
66.8500 289.0000 1.0000
66.8600 296.0000 1.0000
66.8700 322.0000 1.0000
66.8800 292.0000 1.0000
66.8900 253.0000 1.0000
66.9000 259.0000 1.0000
66.9100 262.0000 1.0000
66.9200 246.0000 1.0000
66.9300 283.0000 1.0000
66.9400 262.0000 1.0000
66.9500 243.0000 1.0000
66.9600 275.0000 1.0000
66.9700 287.0000 1.0000
66.9800 277.0000 1.0000
66.9900 267.0000 1.0000
67.0000 266.0000 1.0000
67.0100 253.0000 1.0000
67.0200 273.0000 1.0000
67.0300 279.0000 1.0000
67.0400 247.0000 1.0000
67.0500 265.0000 1.0000
67.0600 242.0000 1.0000
67.0700 251.0000 1.0000
67.0800 259.0000 1.0000
67.0900 245.0000 1.0000
67.1000 269.0000 1.0000
67.1100 243.0000 1.0000
67.1200 265.0000 1.0000
67.1300 239.0000 1.0000
67.1400 247.0000 1.0000
67.1500 278.0000 1.0000
67.1600 261.0000 1.0000
67.1700 265.0000 1.0000
67.1800 248.0000 1.0000
67.1900 242.0000 1.0000
67.2000 225.0000 1.0000
67.2100 240.0000 1.0000
67.2200 281.0000 1.0000
67.2300 236.0000 1.0000
67.2400 235.0000 1.0000
67.2500 272.0000 1.0000
67.2600 244.0000 1.0000
67.2700 229.0000 1.0000
67.2800 221.0000 1.0000
67.2900 248.0000 1.0000
67.3000 246.0000 1.0000
67.3100 237.0000 1.0000
67.3200 230.0000 1.0000
67.3300 261.0000 1.0000
67.3400 270.0000 1.0000
67.3500 273.0000 1.0000
67.3600 226.0000 1.0000
67.3700 241.0000 1.0000
67.3800 229.0000 1.0000
67.3900 232.0000 1.0000
67.4000 223.0000 1.0000
67.4100 234.0000 1.0000
67.4200 265.0000 1.0000
67.4300 215.0000 1.0000
67.4400 219.0000 1.0000
67.4500 237.0000 1.0000
67.4600 256.0000 1.0000
67.4700 259.0000 1.0000
67.4800 228.0000 1.0000
67.4900 253.0000 1.0000
67.5000 243.0000 1.0000
67.5100 239.0000 1.0000
67.5200 243.0000 1.0000
67.5300 220.0000 1.0000
67.5400 251.0000 1.0000
67.5500 236.0000 1.0000
67.5600 246.0000 1.0000
67.5700 235.0000 1.0000
67.5800 245.0000 1.0000
67.5900 246.0000 1.0000
67.6000 246.0000 1.0000
67.6100 223.0000 1.0000
67.6200 249.0000 1.0000
67.6300 214.0000 1.0000
67.6400 225.0000 1.0000
67.6500 241.0000 1.0000
67.6600 230.0000 1.0000
67.6700 275.0000 1.0000
67.6800 251.0000 1.0000
67.6900 239.0000 1.0000
67.7000 230.0000 1.0000
67.7100 230.0000 1.0000
67.7200 226.0000 1.0000
67.7300 233.0000 1.0000
67.7400 238.0000 1.0000
67.7500 239.0000 1.0000
67.7600 239.0000 1.0000
67.7700 240.0000 1.0000
67.7800 256.0000 1.0000
67.7900 254.0000 1.0000
67.8000 234.0000 1.0000
67.8100 229.0000 1.0000
67.8200 222.0000 1.0000
67.8300 233.0000 1.0000
67.8400 216.0000 1.0000
67.8500 217.0000 1.0000
67.8600 221.0000 1.0000
67.8700 238.0000 1.0000
67.8800 231.0000 1.0000
67.8900 231.0000 1.0000
67.9000 232.0000 1.0000
67.9100 217.0000 1.0000
67.9200 233.0000 1.0000
67.9300 240.0000 1.0000
67.9400 238.0000 1.0000
67.9500 220.0000 1.0000
67.9600 226.0000 1.0000
67.9700 215.0000 1.0000
67.9800 218.0000 1.0000
67.9900 206.0000 1.0000
68.0000 220.0000 1.0000
68.0100 230.0000 1.0000
68.0200 231.0000 1.0000
68.0300 239.0000 1.0000
68.0400 228.0000 1.0000
68.0500 214.0000 1.0000
68.0600 203.0000 1.0000
68.0700 243.0000 1.0000
68.0800 204.0000 1.0000
68.0900 225.0000 1.0000
68.1000 204.0000 1.0000
68.1100 237.0000 1.0000
68.1200 241.0000 1.0000
68.1300 237.0000 1.0000
68.1400 239.0000 1.0000
68.1500 226.0000 1.0000
68.1600 242.0000 1.0000
68.1700 240.0000 1.0000
68.1800 246.0000 1.0000
68.1900 228.0000 1.0000
68.2000 208.0000 1.0000
68.2100 236.0000 1.0000
68.2200 212.0000 1.0000
68.2300 215.0000 1.0000
68.2400 197.0000 1.0000
68.2500 213.0000 1.0000
68.2600 222.0000 1.0000
68.2700 210.0000 1.0000
68.2800 249.0000 1.0000
68.2900 226.0000 1.0000
68.3000 233.0000 1.0000
68.3100 227.0000 1.0000
68.3200 227.0000 1.0000
68.3300 220.0000 1.0000
68.3400 255.0000 1.0000
68.3500 228.0000 1.0000
68.3600 229.0000 1.0000
68.3700 213.0000 1.0000
68.3800 210.0000 1.0000
68.3900 210.0000 1.0000
68.4000 246.0000 1.0000
68.4100 224.0000 1.0000
68.4200 229.0000 1.0000
68.4300 206.0000 1.0000
68.4400 214.0000 1.0000
68.4500 219.0000 1.0000
68.4600 206.0000 1.0000
68.4700 204.0000 1.0000
68.4800 248.0000 1.0000
68.4900 246.0000 1.0000
68.5000 257.0000 1.0000
68.5100 219.0000 1.0000
68.5200 196.0000 1.0000
68.5300 221.0000 1.0000
68.5400 217.0000 1.0000
68.5500 229.0000 1.0000
68.5600 243.0000 1.0000
68.5700 221.0000 1.0000
68.5800 244.0000 1.0000
68.5900 244.0000 1.0000
68.6000 247.0000 1.0000
68.6100 211.0000 1.0000
68.6200 231.0000 1.0000
68.6300 227.0000 1.0000
68.6400 201.0000 1.0000
68.6500 249.0000 1.0000
68.6600 239.0000 1.0000
68.6700 212.0000 1.0000
68.6800 232.0000 1.0000
68.6900 231.0000 1.0000
68.7000 220.0000 1.0000
68.7100 220.0000 1.0000
68.7200 197.0000 1.0000
68.7300 214.0000 1.0000
68.7400 215.0000 1.0000
68.7500 238.0000 1.0000
68.7600 230.0000 1.0000
68.7700 229.0000 1.0000
68.7800 233.0000 1.0000
68.7900 229.0000 1.0000
68.8000 195.0000 1.0000
68.8100 224.0000 1.0000
68.8200 214.0000 1.0000
68.8300 212.0000 1.0000
68.8400 233.0000 1.0000
68.8500 220.0000 1.0000
68.8600 208.0000 1.0000
68.8700 228.0000 1.0000
68.8800 215.0000 1.0000
68.8900 233.0000 1.0000
68.9000 241.0000 1.0000
68.9100 233.0000 1.0000
68.9200 227.0000 1.0000
68.9300 197.0000 1.0000
68.9400 235.0000 1.0000
68.9500 243.0000 1.0000
68.9600 244.0000 1.0000
68.9700 234.0000 1.0000
68.9800 226.0000 1.0000
68.9900 221.0000 1.0000
69.0000 215.0000 1.0000
69.0100 208.0000 1.0000
69.0200 243.0000 1.0000
69.0300 218.0000 1.0000
69.0400 244.0000 1.0000
69.0500 216.0000 1.0000
69.0600 230.0000 1.0000
69.0700 223.0000 1.0000
69.0800 233.0000 1.0000
69.0900 240.0000 1.0000
69.1000 233.0000 1.0000
69.1100 197.0000 1.0000
69.1200 233.0000 1.0000
69.1300 216.0000 1.0000
69.1400 230.0000 1.0000
69.1500 200.0000 1.0000
69.1600 237.0000 1.0000
69.1700 245.0000 1.0000
69.1800 235.0000 1.0000
69.1900 230.0000 1.0000
69.2000 226.0000 1.0000
69.2100 223.0000 1.0000
69.2200 200.0000 1.0000
69.2300 237.0000 1.0000
69.2400 222.0000 1.0000
69.2500 218.0000 1.0000
69.2600 240.0000 1.0000
69.2700 234.0000 1.0000
69.2800 238.0000 1.0000
69.2900 245.0000 1.0000
69.3000 222.0000 1.0000
69.3100 201.0000 1.0000
69.3200 213.0000 1.0000
69.3300 205.0000 1.0000
69.3400 231.0000 1.0000
69.3500 224.0000 1.0000
69.3600 245.0000 1.0000
69.3700 212.0000 1.0000
69.3800 229.0000 1.0000
69.3900 199.0000 1.0000
69.4000 211.0000 1.0000
69.4100 212.0000 1.0000
69.4200 216.0000 1.0000
69.4300 207.0000 1.0000
69.4400 236.0000 1.0000
69.4500 230.0000 1.0000
69.4600 222.0000 1.0000
69.4700 223.0000 1.0000
69.4800 222.0000 1.0000
69.4900 230.0000 1.0000
69.5000 249.0000 1.0000
69.5100 234.0000 1.0000
69.5200 226.0000 1.0000
69.5300 213.0000 1.0000
69.5400 248.0000 1.0000
69.5500 239.0000 1.0000
69.5600 207.0000 1.0000
69.5700 240.0000 1.0000
69.5800 221.0000 1.0000
69.5900 225.0000 1.0000
69.6000 212.0000 1.0000
69.6100 220.0000 1.0000
69.6200 225.0000 1.0000
69.6300 221.0000 1.0000
69.6400 221.0000 1.0000
69.6500 224.0000 1.0000
69.6600 248.0000 1.0000
69.6700 224.0000 1.0000
69.6800 225.0000 1.0000
69.6900 225.0000 1.0000
69.7000 221.0000 1.0000
69.7100 234.0000 1.0000
69.7200 220.0000 1.0000
69.7300 245.0000 1.0000
69.7400 256.0000 1.0000
69.7500 227.0000 1.0000
69.7600 194.0000 1.0000
69.7700 213.0000 1.0000
69.7800 220.0000 1.0000
69.7900 247.0000 1.0000
69.8000 214.0000 1.0000
69.8100 235.0000 1.0000
69.8200 213.0000 1.0000
69.8300 227.0000 1.0000
69.8400 236.0000 1.0000
69.8500 235.0000 1.0000
69.8600 233.0000 1.0000
69.8700 230.0000 1.0000
69.8800 236.0000 1.0000
69.8900 211.0000 1.0000
69.9000 216.0000 1.0000
69.9100 230.0000 1.0000
69.9200 232.0000 1.0000
69.9300 225.0000 1.0000
69.9400 212.0000 1.0000
69.9500 217.0000 1.0000
69.9600 202.0000 1.0000
69.9700 197.0000 1.0000
69.9800 201.0000 1.0000
69.9900 241.0000 1.0000
70.0000 185.0000 1.0000
*RAS_INT_END
*RAS_TEMPERATURE_START
*RAS_TEMPERATURE_END
*RAS_DATA_END
