*RAS_DATA_START
*RAS_HEADER_START
*DISP_FMT_X "%.2f"
*DISP_FMT_Y "%.0f"
*DISP_FULLSCALE "20525.0000000000"
*DISP_LINE_COLOR "255.0000000000"
*DISP_LINE_STYLE "0.0000000000"
*DISP_LINE_WIDTH "0.2500000000"
*DISP_NOTE "測定データ-6"
*DISP_OFFSET_Y "0.0000000000"
*DISP_PEAKSEARCH_UNIT_Y "cps"
*DISP_RANGE_BOTTOM "0.0000000000"
*DISP_RANGE_LEFT "20.0000000000"
*DISP_RANGE_LOGCUTOFF "0.0100000000"
*DISP_RANGE_RIGHT "70.0000000000"
*DISP_RANGE_TOP "20525.0000000000"
*DISP_SCALE_MODE_Y "0.0000000000"
*DISP_TAB_NAME "2θ/θ"
*DISP_TITLE_Y "強度"
*DISP_UNIT_Y "cps"
*DISP_WINDOW_NAME "MSG_MACROENGINE"
*FILE_COMMENT " "
*FILE_MD5 ""
*FILE_MEMO " "
*FILE_OPERATOR "Administrator"
*FILE_SAMPLE " "
*FILE_TYPE "RAS_RAW"
*FILE_USERGROUP "システムマネージャ"
*FILE_VERSION "1.0000000000"
*HW_ATTACHMENT_ID "ATT0025"
*HW_ATTACHMENT_NAME "標準|Standard"
*HW_COUNTER_ID-0 "CUT0025"
*HW_COUNTER_ID-1 "CUT0020"
*HW_COUNTER_ID-2 "CUT0020"
*HW_COUNTER_ID-3 "CSL0021"
*HW_COUNTER_ID-4 "CMC0021"
*HW_COUNTER_NAME-0 "D/teX Ultra|D/teX Ultra"
*HW_COUNTER_NAME-1 "None|None"
*HW_COUNTER_NAME-2 "None|None"
*HW_COUNTER_NAME-3 "BBM|BBM"
*HW_COUNTER_NAME-4 "検出器モノクロメータ|Detector monochromator"
*HW_COUNTER_SELECT_NAME "D/teX Ultra|D/teX Ultra"
*HW_GONIOMETER_ID "GON0023"
*HW_GONIOMETER_NAME "SmartLab|SmartLab"
*HW_GONIOMETER_RADIUS-0 "90.0"
*HW_GONIOMETER_RADIUS-1 "114.0"
*HW_GONIOMETER_RADIUS-2 "190.0"
*HW_GONIOMETER_RADIUS-3 "300.0"
*HW_GONIOMETER_RADIUS-4 "187.0"
*HW_GONIOMETER_RADIUS-5 "300.0"
*HW_GONIOMETER_RADIUS-6 "113.0"
*HW_GONIOMETER_RADIUS-7 "331.0"
*HW_I_OPT_ID-0 "CBO0021"
*HW_I_OPT_ID-1 "ICR0023"
*HW_I_OPT_ID-2 "ISL0021"
*HW_I_OPT_ID-3 "ISO0021"
*HW_I_OPT_ID-4 "IAD0021"
*HW_I_OPT_ID-5 "IPR0001"
*HW_I_OPT_NAME-0 "CBOユニット|CBO unit"
*HW_I_OPT_NAME-1 "標準入射光学ユニット|Standard incident optical unit"
*HW_I_OPT_NAME-2 "標準入射スリットボックス|Standard incident slit box"
*HW_I_OPT_NAME-3 "入射平行スリット|Incident parallel slit"
*HW_I_OPT_NAME-4 "長手制限スリット|Length limiting slit"
*HW_I_OPT_NAME-5 "None|None"
*HW_R_ATTENUATER_AUTOMODE "0"
*HW_R_OPT_ID-0 "RSS0021"
*HW_R_OPT_ID-1 "RCR0023"
*HW_R_OPT_ID-2 "RSO0021"
*HW_R_OPT_ID-3 "RRS0021"
*HW_R_OPT_ID-4 "ATN0021"
*HW_R_OPT_ID-5 "RFL0021"
*HW_R_OPT_ID-6 "RAD0021"
*HW_R_OPT_NAME-0 "標準受光スリットボックス1|Standard receiving slit box # 1"
*HW_R_OPT_NAME-1 "標準受光光学ユニット1|Standard receiving unit # 1"
*HW_R_OPT_NAME-2 "標準受光光学ユニット2|Standard receiving optical unit # 2"
*HW_R_OPT_NAME-3 "標準受光スリットボックス2|Standard receiving slit box # 2"
*HW_R_OPT_NAME-4 "標準アッテネータ|Standard Attenuator"
*HW_R_OPT_NAME-5 "Cu Kβ|Cu K-beta"
*HW_R_OPT_NAME-6 "調整用受光スリット|Alignment receiving slit"
*HW_SAMPLE_HOLDER_ID "SMP0023"
*HW_SAMPLE_HOLDER_NAME "標準Zステージ|Standard Z stage"
*HW_XG_CURRENT_MAX "50"
*HW_XG_CURRENT_MIN "2"
*HW_XG_CURRENT_RESOLUTION "1"
*HW_XG_CURRENT_UNIT "mA"
*HW_XG_FOCUS "1mm x 10mm"
*HW_XG_FOCUS_TYPE "Normal"
*HW_XG_ID ""
*HW_XG_NAME "3kW 封入管(ID:1200)|3kW Sealed tube(ID:1200)"
*HW_XG_TARGET_ATOMIC_NUMBER "29.0000000000"
*HW_XG_TARGET_NAME "Cu"
*HW_XG_TYPE "Hermetic"
*HW_XG_VOLTAGE_MAX "60"
*HW_XG_VOLTAGE_MIN "20"
*HW_XG_VOLTAGE_RESOLUTION "1"
*HW_XG_VOLTAGE_UNIT "kV"
*HW_XG_WATT_MAX "1.500"
*HW_XG_WATT_UNIT "kW"
*HW_XG_WAVE_LENGTH_ALPHA1 "1.540593"
*HW_XG_WAVE_LENGTH_ALPHA2 "1.544414"
*HW_XG_WAVE_LENGTH_BETA "1.392250"
*MEAS_COND_AXIS_NAME-0 "2θ/θ"
*MEAS_COND_AXIS_NAME-1 "2θ"
*MEAS_COND_AXIS_NAME-2 "ω"
*MEAS_COND_AXIS_NAME-3 "Z"
*MEAS_COND_AXIS_NAME-4 "2θ/ω"
*MEAS_COND_AXIS_NAME-5 "θs"
*MEAS_COND_AXIS_NAME-6 "θd"
*MEAS_COND_AXIS_NAME-7 "Ts"
*MEAS_COND_AXIS_NAME-8 "CBO選択スリット"
*MEAS_COND_AXIS_NAME-9 "M"
*MEAS_COND_AXIS_NAME-10 "入射平行スリット"
*MEAS_COND_AXIS_NAME-11 "入射スリット"
*MEAS_COND_AXIS_NAME-12 ""
*MEAS_COND_AXIS_NAME-13 "Zs"
*MEAS_COND_AXIS_NAME-14 "入射光学素子"
*MEAS_COND_AXIS_NAME-15 "長手制限スリット"
*MEAS_COND_AXIS_NAME-16 "センタースリット"
*MEAS_COND_AXIS_NAME-17 "フィルター"
*MEAS_COND_AXIS_NAME-18 "受光スリット1"
*MEAS_COND_AXIS_NAME-19 "受光スリット2"
*MEAS_COND_AXIS_NAME-20 "受光光学素子"
*MEAS_COND_AXIS_NAME-21 "受光平行スリット"
*MEAS_COND_AXIS_NAME-22 "調整用受光スリット"
*MEAS_COND_AXIS_NAME-23 ""
*MEAS_COND_AXIS_NAME-24 ""
*MEAS_COND_AXIS_NAME-25 "Zd"
*MEAS_COND_AXIS_NAME-26 "アッテネータ"
*MEAS_COND_AXIS_NAME-27 "検出器モノクロメータ"
*MEAS_COND_AXIS_NAME-28 "モノクロメータスリット"
*MEAS_COND_AXIS_NAME-29 "プライマリビーム"
*MEAS_COND_AXIS_NAME-30 "PHA"
*MEAS_COND_AXIS_NAME_INTERNAL-0 "TwoThetaTheta"
*MEAS_COND_AXIS_NAME_INTERNAL-1 "TwoTheta"
*MEAS_COND_AXIS_NAME_INTERNAL-2 "Omega"
*MEAS_COND_AXIS_NAME_INTERNAL-3 "Z"
*MEAS_COND_AXIS_NAME_INTERNAL-4 "TwoThetaOmega"
*MEAS_COND_AXIS_NAME_INTERNAL-5 "ThetaS"
*MEAS_COND_AXIS_NAME_INTERNAL-6 "ThetaD"
*MEAS_COND_AXIS_NAME_INTERNAL-7 "Ts"
*MEAS_COND_AXIS_NAME_INTERNAL-8 "CBO"
*MEAS_COND_AXIS_NAME_INTERNAL-9 "CBO-M"
*MEAS_COND_AXIS_NAME_INTERNAL-10 "IncidentSollerSlit"
*MEAS_COND_AXIS_NAME_INTERNAL-11 "IncidentSlitBox"
*MEAS_COND_AXIS_NAME_INTERNAL-12 "IncidentSlitBox-_Axis"
*MEAS_COND_AXIS_NAME_INTERNAL-13 "Zs"
*MEAS_COND_AXIS_NAME_INTERNAL-14 "IncidentMonochromator"
*MEAS_COND_AXIS_NAME_INTERNAL-15 "IncidentAxdSlit"
*MEAS_COND_AXIS_NAME_INTERNAL-16 "CenterSlit"
*MEAS_COND_AXIS_NAME_INTERNAL-17 "Filter"
*MEAS_COND_AXIS_NAME_INTERNAL-18 "ReceivingSlitBox1"
*MEAS_COND_AXIS_NAME_INTERNAL-19 "ReceivingSlitBox2"
*MEAS_COND_AXIS_NAME_INTERNAL-20 "ReceivingOptics"
*MEAS_COND_AXIS_NAME_INTERNAL-21 "ReceivingSollerSlit"
*MEAS_COND_AXIS_NAME_INTERNAL-22 "ReceivingAxdSlit"
*MEAS_COND_AXIS_NAME_INTERNAL-23 "ReceivingSlitBox1-_Axis"
*MEAS_COND_AXIS_NAME_INTERNAL-24 "ReceivingSlitBox2-_Axis"
*MEAS_COND_AXIS_NAME_INTERNAL-25 "ReceivingSlitBox2-Zd"
*MEAS_COND_AXIS_NAME_INTERNAL-26 "Attenuator"
*MEAS_COND_AXIS_NAME_INTERNAL-27 "CounterMonochromator"
*MEAS_COND_AXIS_NAME_INTERNAL-28 "CounterSlit"
*MEAS_COND_AXIS_NAME_INTERNAL-29 "IncidentPrimary"
*MEAS_COND_AXIS_NAME_INTERNAL-30 "PHA"
*MEAS_COND_AXIS_NAME_MAGICNO-0 "83951616.0000000000"
*MEAS_COND_AXIS_NAME_MAGICNO-1 "268632064.0000000000"
*MEAS_COND_AXIS_NAME_MAGICNO-2 "268500992.0000000000"
*MEAS_COND_AXIS_NAME_MAGICNO-3 "285278208.0000000000"
*MEAS_COND_AXIS_NAME_MAGICNO-4 "83951616.0000000000"
*MEAS_COND_AXIS_NAME_MAGICNO-5 "131072.0000000000"
*MEAS_COND_AXIS_NAME_MAGICNO-6 "131072.0000000000"
*MEAS_COND_AXIS_NAME_MAGICNO-7 "318898176.0000000000"
*MEAS_COND_AXIS_NAME_MAGICNO-8 "20971521.0000000000"
*MEAS_COND_AXIS_NAME_MAGICNO-9 "285343744.0000000000"
*MEAS_COND_AXIS_NAME_MAGICNO-10 "20971521.0000000000"
*MEAS_COND_AXIS_NAME_MAGICNO-11 "22020097.0000000000"
*MEAS_COND_AXIS_NAME_MAGICNO-12 "25165824.0000000000"
*MEAS_COND_AXIS_NAME_MAGICNO-13 "318898176.0000000000"
*MEAS_COND_AXIS_NAME_MAGICNO-14 "1.0000000000"
*MEAS_COND_AXIS_NAME_MAGICNO-15 "20971521.0000000000"
*MEAS_COND_AXIS_NAME_MAGICNO-16 "20971521.0000000000"
*MEAS_COND_AXIS_NAME_MAGICNO-17 "20971521.0000000000"
*MEAS_COND_AXIS_NAME_MAGICNO-18 "23068673.0000000000"
*MEAS_COND_AXIS_NAME_MAGICNO-19 "23068673.0000000000"
*MEAS_COND_AXIS_NAME_MAGICNO-20 "20971521.0000000000"
*MEAS_COND_AXIS_NAME_MAGICNO-21 "20971521.0000000000"
*MEAS_COND_AXIS_NAME_MAGICNO-22 "20971521.0000000000"
*MEAS_COND_AXIS_NAME_MAGICNO-23 "25165824.0000000000"
*MEAS_COND_AXIS_NAME_MAGICNO-24 "25165824.0000000000"
*MEAS_COND_AXIS_NAME_MAGICNO-25 "285343744.0000000000"
*MEAS_COND_AXIS_NAME_MAGICNO-26 "17301505.0000000000"
*MEAS_COND_AXIS_NAME_MAGICNO-27 "20971521.0000000000"
*MEAS_COND_AXIS_NAME_MAGICNO-28 "20971521.0000000000"
*MEAS_COND_AXIS_NAME_MAGICNO-29 "20971521.0000000000"
*MEAS_COND_AXIS_NAME_MAGICNO-30 "0.0000000000"
*MEAS_COND_AXIS_OFFSET-0 "-"
*MEAS_COND_AXIS_OFFSET-1 "-0.0801000000"
*MEAS_COND_AXIS_OFFSET-2 "0.1283000000"
*MEAS_COND_AXIS_OFFSET-3 "-"
*MEAS_COND_AXIS_OFFSET-4 "-"
*MEAS_COND_AXIS_OFFSET-5 "0.1283000000"
*MEAS_COND_AXIS_OFFSET-6 "-0.2084000000"
*MEAS_COND_AXIS_OFFSET-7 "-"
*MEAS_COND_AXIS_OFFSET-8 "-"
*MEAS_COND_AXIS_OFFSET-9 "-"
*MEAS_COND_AXIS_OFFSET-10 "-"
*MEAS_COND_AXIS_OFFSET-11 "-"
*MEAS_COND_AXIS_OFFSET-12 "-"
*MEAS_COND_AXIS_OFFSET-13 "-"
*MEAS_COND_AXIS_OFFSET-14 "-"
*MEAS_COND_AXIS_OFFSET-15 "-"
*MEAS_COND_AXIS_OFFSET-16 "-"
*MEAS_COND_AXIS_OFFSET-17 "-"
*MEAS_COND_AXIS_OFFSET-18 "-"
*MEAS_COND_AXIS_OFFSET-19 "-"
*MEAS_COND_AXIS_OFFSET-20 "-"
*MEAS_COND_AXIS_OFFSET-21 "-"
*MEAS_COND_AXIS_OFFSET-22 "-"
*MEAS_COND_AXIS_OFFSET-23 "-"
*MEAS_COND_AXIS_OFFSET-24 "-"
*MEAS_COND_AXIS_OFFSET-25 "-"
*MEAS_COND_AXIS_OFFSET-26 "-"
*MEAS_COND_AXIS_OFFSET-27 "-"
*MEAS_COND_AXIS_OFFSET-28 "-"
*MEAS_COND_AXIS_OFFSET-29 "-"
*MEAS_COND_AXIS_OFFSET-30 "-"
*MEAS_COND_AXIS_POSITION-0 "0.0000000000"
*MEAS_COND_AXIS_POSITION-1 "0.0000000000"
*MEAS_COND_AXIS_POSITION-2 "0.0000000000"
*MEAS_COND_AXIS_POSITION-3 "-2.9935200000"
*MEAS_COND_AXIS_POSITION-4 "0.0000000000"
*MEAS_COND_AXIS_POSITION-5 "0.0000000000"
*MEAS_COND_AXIS_POSITION-6 "0.0000000000"
*MEAS_COND_AXIS_POSITION-7 "-0.4278800000"
*MEAS_COND_AXIS_POSITION-8 "BB"
*MEAS_COND_AXIS_POSITION-9 "0.0000000000"
*MEAS_COND_AXIS_POSITION-10 "Soller_slit_5.0deg"
*MEAS_COND_AXIS_POSITION-11 "2/3deg"
*MEAS_COND_AXIS_POSITION-12 "2.2088000000"
*MEAS_COND_AXIS_POSITION-13 "-1.0609400000"
*MEAS_COND_AXIS_POSITION-14 "0.0000000000"
*MEAS_COND_AXIS_POSITION-15 "10.0mm"
*MEAS_COND_AXIS_POSITION-16 "None"
*MEAS_COND_AXIS_POSITION-17 "Cu_K-beta"
*MEAS_COND_AXIS_POSITION-18 "13.000mm"
*MEAS_COND_AXIS_POSITION-19 "13.000mm"
*MEAS_COND_AXIS_POSITION-20 "No_unit"
*MEAS_COND_AXIS_POSITION-21 "Soller_slit_5.0deg"
*MEAS_COND_AXIS_POSITION-22 "None"
*MEAS_COND_AXIS_POSITION-23 "13.0000000000"
*MEAS_COND_AXIS_POSITION-24 "13.0000000000"
*MEAS_COND_AXIS_POSITION-25 "0.0081300000"
*MEAS_COND_AXIS_POSITION-26 "Open"
*MEAS_COND_AXIS_POSITION-27 "None"
*MEAS_COND_AXIS_POSITION-28 "None"
*MEAS_COND_AXIS_POSITION-29 "None"
*MEAS_COND_AXIS_POSITION-30 "38.0000000000"
*MEAS_COND_AXIS_UNIT-0 "deg"
*MEAS_COND_AXIS_UNIT-1 "deg"
*MEAS_COND_AXIS_UNIT-2 "deg"
*MEAS_COND_AXIS_UNIT-3 "mm"
*MEAS_COND_AXIS_UNIT-4 "deg"
*MEAS_COND_AXIS_UNIT-5 "deg"
*MEAS_COND_AXIS_UNIT-6 "deg"
*MEAS_COND_AXIS_UNIT-7 "mm"
*MEAS_COND_AXIS_UNIT-8 ""
*MEAS_COND_AXIS_UNIT-9 "pulse"
*MEAS_COND_AXIS_UNIT-10 ""
*MEAS_COND_AXIS_UNIT-11 ""
*MEAS_COND_AXIS_UNIT-12 "mm"
*MEAS_COND_AXIS_UNIT-13 "mm"
*MEAS_COND_AXIS_UNIT-14 ""
*MEAS_COND_AXIS_UNIT-15 ""
*MEAS_COND_AXIS_UNIT-16 ""
*MEAS_COND_AXIS_UNIT-17 ""
*MEAS_COND_AXIS_UNIT-18 ""
*MEAS_COND_AXIS_UNIT-19 ""
*MEAS_COND_AXIS_UNIT-20 ""
*MEAS_COND_AXIS_UNIT-21 ""
*MEAS_COND_AXIS_UNIT-22 ""
*MEAS_COND_AXIS_UNIT-23 "mm"
*MEAS_COND_AXIS_UNIT-24 "mm"
*MEAS_COND_AXIS_UNIT-25 "mm"
*MEAS_COND_AXIS_UNIT-26 ""
*MEAS_COND_AXIS_UNIT-27 ""
*MEAS_COND_AXIS_UNIT-28 ""
*MEAS_COND_AXIS_UNIT-29 ""
*MEAS_COND_AXIS_UNIT-30 "div"
*MEAS_COND_COUNTER_CNTLOSS_CORR "0.0000000000"
*MEAS_COND_COUNTER_PHABASE "38.0000000000"
*MEAS_COND_COUNTER_PHAWINDOW "16.0000000000"
*MEAS_COND_COUNTER_PHA_UNIT "div"
*MEAS_COND_COUNTER_TAUDIFF "30.0000000000"
*MEAS_COND_COUNTER_TAUINT "0.0000000000"
*MEAS_COND_IRRADIATION_MODE "OFF"
*MEAS_COND_IRRADIATION_WIDTH ""
*MEAS_COND_OPT_ATTR "集中法"
*MEAS_COND_OPT_NAME "@集中法"
*MEAS_COND_UNSYMMETRIC_MODE "OFF"
*MEAS_COND_XG_CURRENT "30.0000000000"
*MEAS_COND_XG_VOLTAGE "40.0000000000"
*MEAS_COND_XG_WAVE_TYPE "Ka"
*MEAS_DATA_COUNT "5001.0000000000"
*MEAS_SCAN_AXIS_X "2θ/θ"
*MEAS_SCAN_AXIS_X_INTERNAL "TwoThetaTheta"
*MEAS_SCAN_END_TIME "07/20/22 17:20:19"
*MEAS_SCAN_MODE "CONTINUOUS"
*MEAS_SCAN_MONITOR "0"
*MEAS_SCAN_RESOLUTION_X "0.0002"
*MEAS_SCAN_SPEED "2.5"
*MEAS_SCAN_SPEED_UNIT "deg/min"
*MEAS_SCAN_START "20.0000000000"
*MEAS_SCAN_START_TIME "07/20/22 16:58:55"
*MEAS_SCAN_STEP "0.0100000000"
*MEAS_SCAN_STOP "70.0000000000"
*MEAS_SCAN_UNIT_X "deg"
*MEAS_SCAN_UNIT_Y "counts"
*RAS_HEADER_END
*RAS_INT_START
20.0000 1084.0000 1.0000
20.0100 1035.0000 1.0000
20.0200 997.0000 1.0000
20.0300 1068.0000 1.0000
20.0400 1026.0000 1.0000
20.0500 1053.0000 1.0000
20.0600 1078.0000 1.0000
20.0700 1047.0000 1.0000
20.0800 1013.0000 1.0000
20.0900 1083.0000 1.0000
20.1000 1033.0000 1.0000
20.1100 1073.0000 1.0000
20.1200 1030.0000 1.0000
20.1300 1003.0000 1.0000
20.1400 998.0000 1.0000
20.1500 1027.0000 1.0000
20.1600 1017.0000 1.0000
20.1700 1070.0000 1.0000
20.1800 1009.0000 1.0000
20.1900 1054.0000 1.0000
20.2000 1054.0000 1.0000
20.2100 986.0000 1.0000
20.2200 1024.0000 1.0000
20.2300 1047.0000 1.0000
20.2400 1028.0000 1.0000
20.2500 1014.0000 1.0000
20.2600 993.0000 1.0000
20.2700 1042.0000 1.0000
20.2800 1019.0000 1.0000
20.2900 1026.0000 1.0000
20.3000 996.0000 1.0000
20.3100 1044.0000 1.0000
20.3200 1046.0000 1.0000
20.3300 1012.0000 1.0000
20.3400 1025.0000 1.0000
20.3500 1045.0000 1.0000
20.3600 1020.0000 1.0000
20.3700 1020.0000 1.0000
20.3800 1019.0000 1.0000
20.3900 1040.0000 1.0000
20.4000 1059.0000 1.0000
20.4100 1061.0000 1.0000
20.4200 1002.0000 1.0000
20.4300 994.0000 1.0000
20.4400 1033.0000 1.0000
20.4500 1025.0000 1.0000
20.4600 1014.0000 1.0000
20.4700 1048.0000 1.0000
20.4800 1038.0000 1.0000
20.4900 1029.0000 1.0000
20.5000 1021.0000 1.0000
20.5100 1013.0000 1.0000
20.5200 988.0000 1.0000
20.5300 1028.0000 1.0000
20.5400 1034.0000 1.0000
20.5500 999.0000 1.0000
20.5600 1037.0000 1.0000
20.5700 1030.0000 1.0000
20.5800 1010.0000 1.0000
20.5900 1063.0000 1.0000
20.6000 1041.0000 1.0000
20.6100 1034.0000 1.0000
20.6200 1053.0000 1.0000
20.6300 1001.0000 1.0000
20.6400 1057.0000 1.0000
20.6500 1060.0000 1.0000
20.6600 1056.0000 1.0000
20.6700 1059.0000 1.0000
20.6800 1053.0000 1.0000
20.6900 969.0000 1.0000
20.7000 1061.0000 1.0000
20.7100 1080.0000 1.0000
20.7200 1031.0000 1.0000
20.7300 973.0000 1.0000
20.7400 1036.0000 1.0000
20.7500 1026.0000 1.0000
20.7600 1046.0000 1.0000
20.7700 1035.0000 1.0000
20.7800 1038.0000 1.0000
20.7900 1042.0000 1.0000
20.8000 1012.0000 1.0000
20.8100 986.0000 1.0000
20.8200 1022.0000 1.0000
20.8300 1052.0000 1.0000
20.8400 1024.0000 1.0000
20.8500 1065.0000 1.0000
20.8600 986.0000 1.0000
20.8700 1051.0000 1.0000
20.8800 1046.0000 1.0000
20.8900 990.0000 1.0000
20.9000 1026.0000 1.0000
20.9100 1047.0000 1.0000
20.9200 1010.0000 1.0000
20.9300 1026.0000 1.0000
20.9400 1026.0000 1.0000
20.9500 981.0000 1.0000
20.9600 1028.0000 1.0000
20.9700 1053.0000 1.0000
20.9800 1021.0000 1.0000
20.9900 1006.0000 1.0000
21.0000 964.0000 1.0000
21.0100 1019.0000 1.0000
21.0200 1005.0000 1.0000
21.0300 1012.0000 1.0000
21.0400 1018.0000 1.0000
21.0500 1044.0000 1.0000
21.0600 1014.0000 1.0000
21.0700 1059.0000 1.0000
21.0800 1066.0000 1.0000
21.0900 1042.0000 1.0000
21.1000 1031.0000 1.0000
21.1100 1043.0000 1.0000
21.1200 990.0000 1.0000
21.1300 999.0000 1.0000
21.1400 955.0000 1.0000
21.1500 1040.0000 1.0000
21.1600 1029.0000 1.0000
21.1700 1005.0000 1.0000
21.1800 1060.0000 1.0000
21.1900 1028.0000 1.0000
21.2000 1022.0000 1.0000
21.2100 967.0000 1.0000
21.2200 1000.0000 1.0000
21.2300 1023.0000 1.0000
21.2400 1035.0000 1.0000
21.2500 1096.0000 1.0000
21.2600 1072.0000 1.0000
21.2700 1009.0000 1.0000
21.2800 999.0000 1.0000
21.2900 1040.0000 1.0000
21.3000 964.0000 1.0000
21.3100 976.0000 1.0000
21.3200 979.0000 1.0000
21.3300 1003.0000 1.0000
21.3400 1053.0000 1.0000
21.3500 988.0000 1.0000
21.3600 1038.0000 1.0000
21.3700 942.0000 1.0000
21.3800 998.0000 1.0000
21.3900 1022.0000 1.0000
21.4000 989.0000 1.0000
21.4100 1025.0000 1.0000
21.4200 1031.0000 1.0000
21.4300 1050.0000 1.0000
21.4400 1055.0000 1.0000
21.4500 1036.0000 1.0000
21.4600 1026.0000 1.0000
21.4700 1048.0000 1.0000
21.4800 1037.0000 1.0000
21.4900 1023.0000 1.0000
21.5000 1055.0000 1.0000
21.5100 1063.0000 1.0000
21.5200 1089.0000 1.0000
21.5300 1059.0000 1.0000
21.5400 999.0000 1.0000
21.5500 1003.0000 1.0000
21.5600 1017.0000 1.0000
21.5700 1013.0000 1.0000
21.5800 1009.0000 1.0000
21.5900 1084.0000 1.0000
21.6000 1075.0000 1.0000
21.6100 1041.0000 1.0000
21.6200 1047.0000 1.0000
21.6300 1043.0000 1.0000
21.6400 1020.0000 1.0000
21.6500 1010.0000 1.0000
21.6600 1011.0000 1.0000
21.6700 999.0000 1.0000
21.6800 1008.0000 1.0000
21.6900 985.0000 1.0000
21.7000 1023.0000 1.0000
21.7100 1010.0000 1.0000
21.7200 1051.0000 1.0000
21.7300 1002.0000 1.0000
21.7400 1020.0000 1.0000
21.7500 993.0000 1.0000
21.7600 1010.0000 1.0000
21.7700 987.0000 1.0000
21.7800 963.0000 1.0000
21.7900 936.0000 1.0000
21.8000 970.0000 1.0000
21.8100 961.0000 1.0000
21.8200 1043.0000 1.0000
21.8300 1044.0000 1.0000
21.8400 1025.0000 1.0000
21.8500 1006.0000 1.0000
21.8600 1058.0000 1.0000
21.8700 1105.0000 1.0000
21.8800 1045.0000 1.0000
21.8900 1041.0000 1.0000
21.9000 1087.0000 1.0000
21.9100 1049.0000 1.0000
21.9200 1069.0000 1.0000
21.9300 1040.0000 1.0000
21.9400 976.0000 1.0000
21.9500 1007.0000 1.0000
21.9600 1031.0000 1.0000
21.9700 1014.0000 1.0000
21.9800 1016.0000 1.0000
21.9900 1042.0000 1.0000
22.0000 1028.0000 1.0000
22.0100 1052.0000 1.0000
22.0200 1061.0000 1.0000
22.0300 1010.0000 1.0000
22.0400 1030.0000 1.0000
22.0500 1013.0000 1.0000
22.0600 1026.0000 1.0000
22.0700 992.0000 1.0000
22.0800 990.0000 1.0000
22.0900 1027.0000 1.0000
22.1000 1050.0000 1.0000
22.1100 1018.0000 1.0000
22.1200 1010.0000 1.0000
22.1300 1042.0000 1.0000
22.1400 1063.0000 1.0000
22.1500 1043.0000 1.0000
22.1600 1029.0000 1.0000
22.1700 1014.0000 1.0000
22.1800 1016.0000 1.0000
22.1900 984.0000 1.0000
22.2000 999.0000 1.0000
22.2100 1018.0000 1.0000
22.2200 1074.0000 1.0000
22.2300 1051.0000 1.0000
22.2400 1056.0000 1.0000
22.2500 995.0000 1.0000
22.2600 1031.0000 1.0000
22.2700 1003.0000 1.0000
22.2800 1014.0000 1.0000
22.2900 979.0000 1.0000
22.3000 999.0000 1.0000
22.3100 1019.0000 1.0000
22.3200 1053.0000 1.0000
22.3300 1005.0000 1.0000
22.3400 1039.0000 1.0000
22.3500 976.0000 1.0000
22.3600 1059.0000 1.0000
22.3700 1049.0000 1.0000
22.3800 1057.0000 1.0000
22.3900 1019.0000 1.0000
22.4000 987.0000 1.0000
22.4100 1062.0000 1.0000
22.4200 1075.0000 1.0000
22.4300 1062.0000 1.0000
22.4400 1043.0000 1.0000
22.4500 1021.0000 1.0000
22.4600 980.0000 1.0000
22.4700 1018.0000 1.0000
22.4800 986.0000 1.0000
22.4900 1039.0000 1.0000
22.5000 995.0000 1.0000
22.5100 1030.0000 1.0000
22.5200 1011.0000 1.0000
22.5300 1072.0000 1.0000
22.5400 992.0000 1.0000
22.5500 1050.0000 1.0000
22.5600 1045.0000 1.0000
22.5700 1040.0000 1.0000
22.5800 1009.0000 1.0000
22.5900 1034.0000 1.0000
22.6000 1042.0000 1.0000
22.6100 1028.0000 1.0000
22.6200 994.0000 1.0000
22.6300 1044.0000 1.0000
22.6400 991.0000 1.0000
22.6500 1007.0000 1.0000
22.6600 1009.0000 1.0000
22.6700 1042.0000 1.0000
22.6800 1029.0000 1.0000
22.6900 1015.0000 1.0000
22.7000 1050.0000 1.0000
22.7100 1025.0000 1.0000
22.7200 1033.0000 1.0000
22.7300 1027.0000 1.0000
22.7400 1040.0000 1.0000
22.7500 1002.0000 1.0000
22.7600 1029.0000 1.0000
22.7700 1017.0000 1.0000
22.7800 1068.0000 1.0000
22.7900 1063.0000 1.0000
22.8000 1000.0000 1.0000
22.8100 1060.0000 1.0000
22.8200 1055.0000 1.0000
22.8300 1018.0000 1.0000
22.8400 998.0000 1.0000
22.8500 984.0000 1.0000
22.8600 977.0000 1.0000
22.8700 986.0000 1.0000
22.8800 1011.0000 1.0000
22.8900 1036.0000 1.0000
22.9000 985.0000 1.0000
22.9100 998.0000 1.0000
22.9200 970.0000 1.0000
22.9300 1015.0000 1.0000
22.9400 1016.0000 1.0000
22.9500 962.0000 1.0000
22.9600 1005.0000 1.0000
22.9700 991.0000 1.0000
22.9800 977.0000 1.0000
22.9900 1028.0000 1.0000
23.0000 976.0000 1.0000
23.0100 991.0000 1.0000
23.0200 979.0000 1.0000
23.0300 1027.0000 1.0000
23.0400 1046.0000 1.0000
23.0500 1053.0000 1.0000
23.0600 998.0000 1.0000
23.0700 1057.0000 1.0000
23.0800 977.0000 1.0000
23.0900 1049.0000 1.0000
23.1000 1002.0000 1.0000
23.1100 969.0000 1.0000
23.1200 1036.0000 1.0000
23.1300 992.0000 1.0000
23.1400 1029.0000 1.0000
23.1500 978.0000 1.0000
23.1600 975.0000 1.0000
23.1700 1035.0000 1.0000
23.1800 1022.0000 1.0000
23.1900 1019.0000 1.0000
23.2000 1087.0000 1.0000
23.2100 1024.0000 1.0000
23.2200 1046.0000 1.0000
23.2300 1024.0000 1.0000
23.2400 1029.0000 1.0000
23.2500 1008.0000 1.0000
23.2600 950.0000 1.0000
23.2700 1016.0000 1.0000
23.2800 976.0000 1.0000
23.2900 973.0000 1.0000
23.3000 1082.0000 1.0000
23.3100 953.0000 1.0000
23.3200 968.0000 1.0000
23.3300 999.0000 1.0000
23.3400 1021.0000 1.0000
23.3500 1054.0000 1.0000
23.3600 1005.0000 1.0000
23.3700 993.0000 1.0000
23.3800 1059.0000 1.0000
23.3900 1038.0000 1.0000
23.4000 1047.0000 1.0000
23.4100 1060.0000 1.0000
23.4200 980.0000 1.0000
23.4300 1003.0000 1.0000
23.4400 1041.0000 1.0000
23.4500 1025.0000 1.0000
23.4600 1015.0000 1.0000
23.4700 975.0000 1.0000
23.4800 1006.0000 1.0000
23.4900 980.0000 1.0000
23.5000 1033.0000 1.0000
23.5100 1011.0000 1.0000
23.5200 1009.0000 1.0000
23.5300 1060.0000 1.0000
23.5400 1023.0000 1.0000
23.5500 1051.0000 1.0000
23.5600 1039.0000 1.0000
23.5700 1034.0000 1.0000
23.5800 1005.0000 1.0000
23.5900 1018.0000 1.0000
23.6000 1027.0000 1.0000
23.6100 1039.0000 1.0000
23.6200 975.0000 1.0000
23.6300 1027.0000 1.0000
23.6400 1012.0000 1.0000
23.6500 999.0000 1.0000
23.6600 988.0000 1.0000
23.6700 1099.0000 1.0000
23.6800 1014.0000 1.0000
23.6900 995.0000 1.0000
23.7000 1053.0000 1.0000
23.7100 1020.0000 1.0000
23.7200 1038.0000 1.0000
23.7300 1021.0000 1.0000
23.7400 1029.0000 1.0000
23.7500 985.0000 1.0000
23.7600 985.0000 1.0000
23.7700 1035.0000 1.0000
23.7800 988.0000 1.0000
23.7900 993.0000 1.0000
23.8000 999.0000 1.0000
23.8100 1033.0000 1.0000
23.8200 1064.0000 1.0000
23.8300 1062.0000 1.0000
23.8400 995.0000 1.0000
23.8500 1007.0000 1.0000
23.8600 1049.0000 1.0000
23.8700 1015.0000 1.0000
23.8800 1077.0000 1.0000
23.8900 1098.0000 1.0000
23.9000 1043.0000 1.0000
23.9100 1018.0000 1.0000
23.9200 996.0000 1.0000
23.9300 1036.0000 1.0000
23.9400 1045.0000 1.0000
23.9500 1017.0000 1.0000
23.9600 1062.0000 1.0000
23.9700 1072.0000 1.0000
23.9800 1032.0000 1.0000
23.9900 1053.0000 1.0000
24.0000 1070.0000 1.0000
24.0100 1074.0000 1.0000
24.0200 1126.0000 1.0000
24.0300 1140.0000 1.0000
24.0400 1104.0000 1.0000
24.0500 1106.0000 1.0000
24.0600 1095.0000 1.0000
24.0700 1170.0000 1.0000
24.0800 1153.0000 1.0000
24.0900 1105.0000 1.0000
24.1000 1127.0000 1.0000
24.1100 1161.0000 1.0000
24.1200 1172.0000 1.0000
24.1300 1141.0000 1.0000
24.1400 1152.0000 1.0000
24.1500 1092.0000 1.0000
24.1600 1102.0000 1.0000
24.1700 1167.0000 1.0000
24.1800 1105.0000 1.0000
24.1900 1109.0000 1.0000
24.2000 1123.0000 1.0000
24.2100 989.0000 1.0000
24.2200 1100.0000 1.0000
24.2300 1047.0000 1.0000
24.2400 1042.0000 1.0000
24.2500 1030.0000 1.0000
24.2600 1028.0000 1.0000
24.2700 1021.0000 1.0000
24.2800 1049.0000 1.0000
24.2900 1020.0000 1.0000
24.3000 1045.0000 1.0000
24.3100 1072.0000 1.0000
24.3200 1042.0000 1.0000
24.3300 990.0000 1.0000
24.3400 1020.0000 1.0000
24.3500 1051.0000 1.0000
24.3600 1088.0000 1.0000
24.3700 1024.0000 1.0000
24.3800 1030.0000 1.0000
24.3900 1008.0000 1.0000
24.4000 1048.0000 1.0000
24.4100 987.0000 1.0000
24.4200 963.0000 1.0000
24.4300 994.0000 1.0000
24.4400 1043.0000 1.0000
24.4500 985.0000 1.0000
24.4600 1007.0000 1.0000
24.4700 1051.0000 1.0000
24.4800 1026.0000 1.0000
24.4900 1034.0000 1.0000
24.5000 1084.0000 1.0000
24.5100 980.0000 1.0000
24.5200 981.0000 1.0000
24.5300 1032.0000 1.0000
24.5400 1022.0000 1.0000
24.5500 1032.0000 1.0000
24.5600 1022.0000 1.0000
24.5700 1038.0000 1.0000
24.5800 1042.0000 1.0000
24.5900 998.0000 1.0000
24.6000 997.0000 1.0000
24.6100 1045.0000 1.0000
24.6200 995.0000 1.0000
24.6300 1075.0000 1.0000
24.6400 1004.0000 1.0000
24.6500 1010.0000 1.0000
24.6600 1013.0000 1.0000
24.6700 1014.0000 1.0000
24.6800 991.0000 1.0000
24.6900 998.0000 1.0000
24.7000 1043.0000 1.0000
24.7100 1025.0000 1.0000
24.7200 996.0000 1.0000
24.7300 1000.0000 1.0000
24.7400 1009.0000 1.0000
24.7500 1004.0000 1.0000
24.7600 1018.0000 1.0000
24.7700 967.0000 1.0000
24.7800 1011.0000 1.0000
24.7900 961.0000 1.0000
24.8000 1027.0000 1.0000
24.8100 968.0000 1.0000
24.8200 967.0000 1.0000
24.8300 996.0000 1.0000
24.8400 998.0000 1.0000
24.8500 981.0000 1.0000
24.8600 992.0000 1.0000
24.8700 1050.0000 1.0000
24.8800 1044.0000 1.0000
24.8900 1013.0000 1.0000
24.9000 1020.0000 1.0000
24.9100 975.0000 1.0000
24.9200 991.0000 1.0000
24.9300 986.0000 1.0000
24.9400 951.0000 1.0000
24.9500 1010.0000 1.0000
24.9600 966.0000 1.0000
24.9700 982.0000 1.0000
24.9800 963.0000 1.0000
24.9900 977.0000 1.0000
25.0000 1027.0000 1.0000
25.0100 1017.0000 1.0000
25.0200 976.0000 1.0000
25.0300 1007.0000 1.0000
25.0400 1000.0000 1.0000
25.0500 1033.0000 1.0000
25.0600 1038.0000 1.0000
25.0700 994.0000 1.0000
25.0800 1030.0000 1.0000
25.0900 1017.0000 1.0000
25.1000 1018.0000 1.0000
25.1100 1021.0000 1.0000
25.1200 947.0000 1.0000
25.1300 971.0000 1.0000
25.1400 965.0000 1.0000
25.1500 975.0000 1.0000
25.1600 970.0000 1.0000
25.1700 1067.0000 1.0000
25.1800 1038.0000 1.0000
25.1900 1006.0000 1.0000
25.2000 991.0000 1.0000
25.2100 1022.0000 1.0000
25.2200 1000.0000 1.0000
25.2300 961.0000 1.0000
25.2400 1048.0000 1.0000
25.2500 1053.0000 1.0000
25.2600 998.0000 1.0000
25.2700 1033.0000 1.0000
25.2800 966.0000 1.0000
25.2900 1016.0000 1.0000
25.3000 1031.0000 1.0000
25.3100 1025.0000 1.0000
25.3200 1005.0000 1.0000
25.3300 1019.0000 1.0000
25.3400 1004.0000 1.0000
25.3500 1000.0000 1.0000
25.3600 984.0000 1.0000
25.3700 1018.0000 1.0000
25.3800 1006.0000 1.0000
25.3900 983.0000 1.0000
25.4000 994.0000 1.0000
25.4100 995.0000 1.0000
25.4200 960.0000 1.0000
25.4300 1018.0000 1.0000
25.4400 1033.0000 1.0000
25.4500 1027.0000 1.0000
25.4600 1059.0000 1.0000
25.4700 1008.0000 1.0000
25.4800 1042.0000 1.0000
25.4900 1030.0000 1.0000
25.5000 981.0000 1.0000
25.5100 952.0000 1.0000
25.5200 998.0000 1.0000
25.5300 1017.0000 1.0000
25.5400 1017.0000 1.0000
25.5500 1004.0000 1.0000
25.5600 1004.0000 1.0000
25.5700 999.0000 1.0000
25.5800 999.0000 1.0000
25.5900 1022.0000 1.0000
25.6000 1000.0000 1.0000
25.6100 1027.0000 1.0000
25.6200 989.0000 1.0000
25.6300 1003.0000 1.0000
25.6400 1037.0000 1.0000
25.6500 1067.0000 1.0000
25.6600 1043.0000 1.0000
25.6700 1040.0000 1.0000
25.6800 992.0000 1.0000
25.6900 971.0000 1.0000
25.7000 1092.0000 1.0000
25.7100 1041.0000 1.0000
25.7200 1085.0000 1.0000
25.7300 1037.0000 1.0000
25.7400 1022.0000 1.0000
25.7500 995.0000 1.0000
25.7600 1078.0000 1.0000
25.7700 1023.0000 1.0000
25.7800 1023.0000 1.0000
25.7900 991.0000 1.0000
25.8000 1062.0000 1.0000
25.8100 998.0000 1.0000
25.8200 1093.0000 1.0000
25.8300 1028.0000 1.0000
25.8400 1063.0000 1.0000
25.8500 1005.0000 1.0000
25.8600 1041.0000 1.0000
25.8700 1062.0000 1.0000
25.8800 1079.0000 1.0000
25.8900 1087.0000 1.0000
25.9000 1055.0000 1.0000
25.9100 1044.0000 1.0000
25.9200 1042.0000 1.0000
25.9300 1018.0000 1.0000
25.9400 1054.0000 1.0000
25.9500 1069.0000 1.0000
25.9600 1106.0000 1.0000
25.9700 1083.0000 1.0000
25.9800 1098.0000 1.0000
25.9900 1096.0000 1.0000
26.0000 1072.0000 1.0000
26.0100 1130.0000 1.0000
26.0200 1174.0000 1.0000
26.0300 1125.0000 1.0000
26.0400 1165.0000 1.0000
26.0500 1148.0000 1.0000
26.0600 1129.0000 1.0000
26.0700 1167.0000 1.0000
26.0800 1186.0000 1.0000
26.0900 1142.0000 1.0000
26.1000 1126.0000 1.0000
26.1100 1286.0000 1.0000
26.1200 1270.0000 1.0000
26.1300 1261.0000 1.0000
26.1400 1302.0000 1.0000
26.1500 1331.0000 1.0000
26.1600 1291.0000 1.0000
26.1700 1311.0000 1.0000
26.1800 1393.0000 1.0000
26.1900 1407.0000 1.0000
26.2000 1425.0000 1.0000
26.2100 1548.0000 1.0000
26.2200 1561.0000 1.0000
26.2300 1556.0000 1.0000
26.2400 1599.0000 1.0000
26.2500 1590.0000 1.0000
26.2600 1656.0000 1.0000
26.2700 1641.0000 1.0000
26.2800 1833.0000 1.0000
26.2900 1777.0000 1.0000
26.3000 1986.0000 1.0000
26.3100 2099.0000 1.0000
26.3200 2170.0000 1.0000
26.3300 2293.0000 1.0000
26.3400 2346.0000 1.0000
26.3500 2534.0000 1.0000
26.3600 2709.0000 1.0000
26.3700 2889.0000 1.0000
26.3800 3038.0000 1.0000
26.3900 3216.0000 1.0000
26.4000 3352.0000 1.0000
26.4100 3651.0000 1.0000
26.4200 3745.0000 1.0000
26.4300 3841.0000 1.0000
26.4400 3914.0000 1.0000
26.4500 4088.0000 1.0000
26.4600 4105.0000 1.0000
26.4700 4101.0000 1.0000
26.4800 3956.0000 1.0000
26.4900 3927.0000 1.0000
26.5000 3812.0000 1.0000
26.5100 3627.0000 1.0000
26.5200 3455.0000 1.0000
26.5300 3288.0000 1.0000
26.5400 3207.0000 1.0000
26.5500 2973.0000 1.0000
26.5600 2803.0000 1.0000
26.5700 2682.0000 1.0000
26.5800 2532.0000 1.0000
26.5900 2401.0000 1.0000
26.6000 2317.0000 1.0000
26.6100 2202.0000 1.0000
26.6200 2065.0000 1.0000
26.6300 1948.0000 1.0000
26.6400 1843.0000 1.0000
26.6500 1805.0000 1.0000
26.6600 1694.0000 1.0000
26.6700 1655.0000 1.0000
26.6800 1513.0000 1.0000
26.6900 1551.0000 1.0000
26.7000 1553.0000 1.0000
26.7100 1464.0000 1.0000
26.7200 1520.0000 1.0000
26.7300 1382.0000 1.0000
26.7400 1330.0000 1.0000
26.7500 1270.0000 1.0000
26.7600 1380.0000 1.0000
26.7700 1331.0000 1.0000
26.7800 1173.0000 1.0000
26.7900 1225.0000 1.0000
26.8000 1247.0000 1.0000
26.8100 1187.0000 1.0000
26.8200 1204.0000 1.0000
26.8300 1116.0000 1.0000
26.8400 1134.0000 1.0000
26.8500 1208.0000 1.0000
26.8600 1159.0000 1.0000
26.8700 1146.0000 1.0000
26.8800 1113.0000 1.0000
26.8900 1070.0000 1.0000
26.9000 1131.0000 1.0000
26.9100 1137.0000 1.0000
26.9200 1120.0000 1.0000
26.9300 1046.0000 1.0000
26.9400 1055.0000 1.0000
26.9500 1061.0000 1.0000
26.9600 1093.0000 1.0000
26.9700 1096.0000 1.0000
26.9800 1076.0000 1.0000
26.9900 1097.0000 1.0000
27.0000 985.0000 1.0000
27.0100 1055.0000 1.0000
27.0200 1056.0000 1.0000
27.0300 984.0000 1.0000
27.0400 993.0000 1.0000
27.0500 1018.0000 1.0000
27.0600 1021.0000 1.0000
27.0700 946.0000 1.0000
27.0800 953.0000 1.0000
27.0900 972.0000 1.0000
27.1000 1022.0000 1.0000
27.1100 1010.0000 1.0000
27.1200 1025.0000 1.0000
27.1300 1023.0000 1.0000
27.1400 940.0000 1.0000
27.1500 975.0000 1.0000
27.1600 996.0000 1.0000
27.1700 949.0000 1.0000
27.1800 986.0000 1.0000
27.1900 986.0000 1.0000
27.2000 1003.0000 1.0000
27.2100 989.0000 1.0000
27.2200 1037.0000 1.0000
27.2300 984.0000 1.0000
27.2400 933.0000 1.0000
27.2500 930.0000 1.0000
27.2600 937.0000 1.0000
27.2700 929.0000 1.0000
27.2800 951.0000 1.0000
27.2900 961.0000 1.0000
27.3000 971.0000 1.0000
27.3100 940.0000 1.0000
27.3200 982.0000 1.0000
27.3300 983.0000 1.0000
27.3400 959.0000 1.0000
27.3500 1022.0000 1.0000
27.3600 941.0000 1.0000
27.3700 939.0000 1.0000
27.3800 936.0000 1.0000
27.3900 961.0000 1.0000
27.4000 941.0000 1.0000
27.4100 962.0000 1.0000
27.4200 935.0000 1.0000
27.4300 931.0000 1.0000
27.4400 926.0000 1.0000
27.4500 942.0000 1.0000
27.4600 970.0000 1.0000
27.4700 992.0000 1.0000
27.4800 944.0000 1.0000
27.4900 933.0000 1.0000
27.5000 895.0000 1.0000
27.5100 965.0000 1.0000
27.5200 1007.0000 1.0000
27.5300 954.0000 1.0000
27.5400 978.0000 1.0000
27.5500 953.0000 1.0000
27.5600 951.0000 1.0000
27.5700 962.0000 1.0000
27.5800 916.0000 1.0000
27.5900 936.0000 1.0000
27.6000 920.0000 1.0000
27.6100 963.0000 1.0000
27.6200 950.0000 1.0000
27.6300 965.0000 1.0000
27.6400 986.0000 1.0000
27.6500 918.0000 1.0000
27.6600 975.0000 1.0000
27.6700 912.0000 1.0000
27.6800 931.0000 1.0000
27.6900 913.0000 1.0000
27.7000 906.0000 1.0000
27.7100 967.0000 1.0000
27.7200 966.0000 1.0000
27.7300 934.0000 1.0000
27.7400 954.0000 1.0000
27.7500 955.0000 1.0000
27.7600 944.0000 1.0000
27.7700 902.0000 1.0000
27.7800 915.0000 1.0000
27.7900 961.0000 1.0000
27.8000 936.0000 1.0000
27.8100 904.0000 1.0000
27.8200 896.0000 1.0000
27.8300 913.0000 1.0000
27.8400 920.0000 1.0000
27.8500 904.0000 1.0000
27.8600 951.0000 1.0000
27.8700 924.0000 1.0000
27.8800 941.0000 1.0000
27.8900 930.0000 1.0000
27.9000 925.0000 1.0000
27.9100 935.0000 1.0000
27.9200 953.0000 1.0000
27.9300 930.0000 1.0000
27.9400 943.0000 1.0000
27.9500 904.0000 1.0000
27.9600 939.0000 1.0000
27.9700 913.0000 1.0000
27.9800 896.0000 1.0000
27.9900 912.0000 1.0000
28.0000 896.0000 1.0000
28.0100 923.0000 1.0000
28.0200 882.0000 1.0000
28.0300 901.0000 1.0000
28.0400 929.0000 1.0000
28.0500 954.0000 1.0000
28.0600 909.0000 1.0000
28.0700 866.0000 1.0000
28.0800 974.0000 1.0000
28.0900 905.0000 1.0000
28.1000 873.0000 1.0000
28.1100 895.0000 1.0000
28.1200 895.0000 1.0000
28.1300 921.0000 1.0000
28.1400 858.0000 1.0000
28.1500 934.0000 1.0000
28.1600 908.0000 1.0000
28.1700 938.0000 1.0000
28.1800 909.0000 1.0000
28.1900 928.0000 1.0000
28.2000 894.0000 1.0000
28.2100 932.0000 1.0000
28.2200 906.0000 1.0000
28.2300 891.0000 1.0000
28.2400 917.0000 1.0000
28.2500 890.0000 1.0000
28.2600 907.0000 1.0000
28.2700 937.0000 1.0000
28.2800 915.0000 1.0000
28.2900 912.0000 1.0000
28.3000 892.0000 1.0000
28.3100 901.0000 1.0000
28.3200 862.0000 1.0000
28.3300 900.0000 1.0000
28.3400 908.0000 1.0000
28.3500 922.0000 1.0000
28.3600 877.0000 1.0000
28.3700 895.0000 1.0000
28.3800 923.0000 1.0000
28.3900 870.0000 1.0000
28.4000 861.0000 1.0000
28.4100 877.0000 1.0000
28.4200 870.0000 1.0000
28.4300 904.0000 1.0000
28.4400 910.0000 1.0000
28.4500 881.0000 1.0000
28.4600 897.0000 1.0000
28.4700 918.0000 1.0000
28.4800 908.0000 1.0000
28.4900 924.0000 1.0000
28.5000 957.0000 1.0000
28.5100 888.0000 1.0000
28.5200 904.0000 1.0000
28.5300 936.0000 1.0000
28.5400 950.0000 1.0000
28.5500 885.0000 1.0000
28.5600 867.0000 1.0000
28.5700 878.0000 1.0000
28.5800 916.0000 1.0000
28.5900 878.0000 1.0000
28.6000 854.0000 1.0000
28.6100 833.0000 1.0000
28.6200 860.0000 1.0000
28.6300 898.0000 1.0000
28.6400 847.0000 1.0000
28.6500 894.0000 1.0000
28.6600 891.0000 1.0000
28.6700 881.0000 1.0000
28.6800 916.0000 1.0000
28.6900 939.0000 1.0000
28.7000 920.0000 1.0000
28.7100 824.0000 1.0000
28.7200 889.0000 1.0000
28.7300 880.0000 1.0000
28.7400 918.0000 1.0000
28.7500 905.0000 1.0000
28.7600 925.0000 1.0000
28.7700 945.0000 1.0000
28.7800 908.0000 1.0000
28.7900 856.0000 1.0000
28.8000 889.0000 1.0000
28.8100 874.0000 1.0000
28.8200 886.0000 1.0000
28.8300 860.0000 1.0000
28.8400 902.0000 1.0000
28.8500 947.0000 1.0000
28.8600 912.0000 1.0000
28.8700 910.0000 1.0000
28.8800 879.0000 1.0000
28.8900 876.0000 1.0000
28.9000 861.0000 1.0000
28.9100 823.0000 1.0000
28.9200 872.0000 1.0000
28.9300 868.0000 1.0000
28.9400 885.0000 1.0000
28.9500 843.0000 1.0000
28.9600 836.0000 1.0000
28.9700 878.0000 1.0000
28.9800 919.0000 1.0000
28.9900 817.0000 1.0000
29.0000 887.0000 1.0000
29.0100 848.0000 1.0000
29.0200 905.0000 1.0000
29.0300 845.0000 1.0000
29.0400 875.0000 1.0000
29.0500 879.0000 1.0000
29.0600 851.0000 1.0000
29.0700 896.0000 1.0000
29.0800 861.0000 1.0000
29.0900 879.0000 1.0000
29.1000 903.0000 1.0000
29.1100 869.0000 1.0000
29.1200 845.0000 1.0000
29.1300 892.0000 1.0000
29.1400 917.0000 1.0000
29.1500 893.0000 1.0000
29.1600 880.0000 1.0000
29.1700 859.0000 1.0000
29.1800 859.0000 1.0000
29.1900 866.0000 1.0000
29.2000 821.0000 1.0000
29.2100 864.0000 1.0000
29.2200 903.0000 1.0000
29.2300 841.0000 1.0000
29.2400 883.0000 1.0000
29.2500 863.0000 1.0000
29.2600 861.0000 1.0000
29.2700 870.0000 1.0000
29.2800 855.0000 1.0000
29.2900 851.0000 1.0000
29.3000 882.0000 1.0000
29.3100 830.0000 1.0000
29.3200 886.0000 1.0000
29.3300 865.0000 1.0000
29.3400 865.0000 1.0000
29.3500 865.0000 1.0000
29.3600 862.0000 1.0000
29.3700 837.0000 1.0000
29.3800 884.0000 1.0000
29.3900 853.0000 1.0000
29.4000 850.0000 1.0000
29.4100 885.0000 1.0000
29.4200 894.0000 1.0000
29.4300 892.0000 1.0000
29.4400 895.0000 1.0000
29.4500 909.0000 1.0000
29.4600 883.0000 1.0000
29.4700 894.0000 1.0000
29.4800 869.0000 1.0000
29.4900 858.0000 1.0000
29.5000 873.0000 1.0000
29.5100 876.0000 1.0000
29.5200 825.0000 1.0000
29.5300 823.0000 1.0000
29.5400 903.0000 1.0000
29.5500 878.0000 1.0000
29.5600 869.0000 1.0000
29.5700 896.0000 1.0000
29.5800 905.0000 1.0000
29.5900 905.0000 1.0000
29.6000 869.0000 1.0000
29.6100 873.0000 1.0000
29.6200 833.0000 1.0000
29.6300 851.0000 1.0000
29.6400 873.0000 1.0000
29.6500 847.0000 1.0000
29.6600 893.0000 1.0000
29.6700 875.0000 1.0000
29.6800 856.0000 1.0000
29.6900 863.0000 1.0000
29.7000 866.0000 1.0000
29.7100 861.0000 1.0000
29.7200 864.0000 1.0000
29.7300 824.0000 1.0000
29.7400 833.0000 1.0000
29.7500 841.0000 1.0000
29.7600 837.0000 1.0000
29.7700 887.0000 1.0000
29.7800 897.0000 1.0000
29.7900 884.0000 1.0000
29.8000 840.0000 1.0000
29.8100 859.0000 1.0000
29.8200 848.0000 1.0000
29.8300 869.0000 1.0000
29.8400 864.0000 1.0000
29.8500 882.0000 1.0000
29.8600 846.0000 1.0000
29.8700 868.0000 1.0000
29.8800 876.0000 1.0000
29.8900 885.0000 1.0000
29.9000 840.0000 1.0000
29.9100 833.0000 1.0000
29.9200 842.0000 1.0000
29.9300 820.0000 1.0000
29.9400 859.0000 1.0000
29.9500 876.0000 1.0000
29.9600 850.0000 1.0000
29.9700 846.0000 1.0000
29.9800 813.0000 1.0000
29.9900 865.0000 1.0000
30.0000 857.0000 1.0000
30.0100 867.0000 1.0000
30.0200 864.0000 1.0000
30.0300 827.0000 1.0000
30.0400 842.0000 1.0000
30.0500 868.0000 1.0000
30.0600 843.0000 1.0000
30.0700 880.0000 1.0000
30.0800 848.0000 1.0000
30.0900 796.0000 1.0000
30.1000 839.0000 1.0000
30.1100 868.0000 1.0000
30.1200 866.0000 1.0000
30.1300 854.0000 1.0000
30.1400 856.0000 1.0000
30.1500 807.0000 1.0000
30.1600 863.0000 1.0000
30.1700 877.0000 1.0000
30.1800 870.0000 1.0000
30.1900 863.0000 1.0000
30.2000 851.0000 1.0000
30.2100 859.0000 1.0000
30.2200 853.0000 1.0000
30.2300 827.0000 1.0000
30.2400 819.0000 1.0000
30.2500 863.0000 1.0000
30.2600 868.0000 1.0000
30.2700 847.0000 1.0000
30.2800 870.0000 1.0000
30.2900 802.0000 1.0000
30.3000 836.0000 1.0000
30.3100 837.0000 1.0000
30.3200 830.0000 1.0000
30.3300 900.0000 1.0000
30.3400 862.0000 1.0000
30.3500 820.0000 1.0000
30.3600 871.0000 1.0000
30.3700 846.0000 1.0000
30.3800 866.0000 1.0000
30.3900 868.0000 1.0000
30.4000 862.0000 1.0000
30.4100 838.0000 1.0000
30.4200 869.0000 1.0000
30.4300 799.0000 1.0000
30.4400 860.0000 1.0000
30.4500 819.0000 1.0000
30.4600 828.0000 1.0000
30.4700 850.0000 1.0000
30.4800 870.0000 1.0000
30.4900 893.0000 1.0000
30.5000 870.0000 1.0000
30.5100 829.0000 1.0000
30.5200 843.0000 1.0000
30.5300 805.0000 1.0000
30.5400 793.0000 1.0000
30.5500 795.0000 1.0000
30.5600 828.0000 1.0000
30.5700 864.0000 1.0000
30.5800 862.0000 1.0000
30.5900 784.0000 1.0000
30.6000 821.0000 1.0000
30.6100 865.0000 1.0000
30.6200 817.0000 1.0000
30.6300 799.0000 1.0000
30.6400 849.0000 1.0000
30.6500 864.0000 1.0000
30.6600 817.0000 1.0000
30.6700 809.0000 1.0000
30.6800 797.0000 1.0000
30.6900 841.0000 1.0000
30.7000 890.0000 1.0000
30.7100 874.0000 1.0000
30.7200 847.0000 1.0000
30.7300 854.0000 1.0000
30.7400 812.0000 1.0000
30.7500 856.0000 1.0000
30.7600 852.0000 1.0000
30.7700 814.0000 1.0000
30.7800 787.0000 1.0000
30.7900 802.0000 1.0000
30.8000 884.0000 1.0000
30.8100 802.0000 1.0000
30.8200 849.0000 1.0000
30.8300 849.0000 1.0000
30.8400 784.0000 1.0000
30.8500 832.0000 1.0000
30.8600 827.0000 1.0000
30.8700 851.0000 1.0000
30.8800 807.0000 1.0000
30.8900 864.0000 1.0000
30.9000 827.0000 1.0000
30.9100 805.0000 1.0000
30.9200 826.0000 1.0000
30.9300 839.0000 1.0000
30.9400 849.0000 1.0000
30.9500 826.0000 1.0000
30.9600 782.0000 1.0000
30.9700 844.0000 1.0000
30.9800 793.0000 1.0000
30.9900 871.0000 1.0000
31.0000 816.0000 1.0000
31.0100 825.0000 1.0000
31.0200 823.0000 1.0000
31.0300 858.0000 1.0000
31.0400 884.0000 1.0000
31.0500 874.0000 1.0000
31.0600 821.0000 1.0000
31.0700 785.0000 1.0000
31.0800 836.0000 1.0000
31.0900 851.0000 1.0000
31.1000 839.0000 1.0000
31.1100 882.0000 1.0000
31.1200 837.0000 1.0000
31.1300 854.0000 1.0000
31.1400 811.0000 1.0000
31.1500 841.0000 1.0000
31.1600 841.0000 1.0000
31.1700 751.0000 1.0000
31.1800 894.0000 1.0000
31.1900 844.0000 1.0000
31.2000 847.0000 1.0000
31.2100 854.0000 1.0000
31.2200 833.0000 1.0000
31.2300 820.0000 1.0000
31.2400 775.0000 1.0000
31.2500 796.0000 1.0000
31.2600 795.0000 1.0000
31.2700 755.0000 1.0000
31.2800 818.0000 1.0000
31.2900 829.0000 1.0000
31.3000 798.0000 1.0000
31.3100 815.0000 1.0000
31.3200 874.0000 1.0000
31.3300 892.0000 1.0000
31.3400 824.0000 1.0000
31.3500 801.0000 1.0000
31.3600 839.0000 1.0000
31.3700 825.0000 1.0000
31.3800 817.0000 1.0000
31.3900 817.0000 1.0000
31.4000 818.0000 1.0000
31.4100 747.0000 1.0000
31.4200 845.0000 1.0000
31.4300 841.0000 1.0000
31.4400 870.0000 1.0000
31.4500 818.0000 1.0000
31.4600 815.0000 1.0000
31.4700 826.0000 1.0000
31.4800 848.0000 1.0000
31.4900 757.0000 1.0000
31.5000 813.0000 1.0000
31.5100 852.0000 1.0000
31.5200 786.0000 1.0000
31.5300 788.0000 1.0000
31.5400 810.0000 1.0000
31.5500 805.0000 1.0000
31.5600 804.0000 1.0000
31.5700 806.0000 1.0000
31.5800 821.0000 1.0000
31.5900 754.0000 1.0000
31.6000 816.0000 1.0000
31.6100 834.0000 1.0000
31.6200 784.0000 1.0000
31.6300 826.0000 1.0000
31.6400 814.0000 1.0000
31.6500 845.0000 1.0000
31.6600 820.0000 1.0000
31.6700 775.0000 1.0000
31.6800 814.0000 1.0000
31.6900 784.0000 1.0000
31.7000 816.0000 1.0000
31.7100 794.0000 1.0000
31.7200 805.0000 1.0000
31.7300 789.0000 1.0000
31.7400 783.0000 1.0000
31.7500 770.0000 1.0000
31.7600 830.0000 1.0000
31.7700 798.0000 1.0000
31.7800 785.0000 1.0000
31.7900 748.0000 1.0000
31.8000 806.0000 1.0000
31.8100 783.0000 1.0000
31.8200 806.0000 1.0000
31.8300 766.0000 1.0000
31.8400 769.0000 1.0000
31.8500 772.0000 1.0000
31.8600 819.0000 1.0000
31.8700 804.0000 1.0000
31.8800 788.0000 1.0000
31.8900 791.0000 1.0000
31.9000 790.0000 1.0000
31.9100 769.0000 1.0000
31.9200 811.0000 1.0000
31.9300 826.0000 1.0000
31.9400 798.0000 1.0000
31.9500 811.0000 1.0000
31.9600 850.0000 1.0000
31.9700 820.0000 1.0000
31.9800 840.0000 1.0000
31.9900 793.0000 1.0000
32.0000 813.0000 1.0000
32.0100 807.0000 1.0000
32.0200 816.0000 1.0000
32.0300 811.0000 1.0000
32.0400 781.0000 1.0000
32.0500 777.0000 1.0000
32.0600 789.0000 1.0000
32.0700 812.0000 1.0000
32.0800 818.0000 1.0000
32.0900 796.0000 1.0000
32.1000 824.0000 1.0000
32.1100 802.0000 1.0000
32.1200 780.0000 1.0000
32.1300 793.0000 1.0000
32.1400 814.0000 1.0000
32.1500 754.0000 1.0000
32.1600 797.0000 1.0000
32.1700 808.0000 1.0000
32.1800 784.0000 1.0000
32.1900 771.0000 1.0000
32.2000 823.0000 1.0000
32.2100 763.0000 1.0000
32.2200 740.0000 1.0000
32.2300 780.0000 1.0000
32.2400 824.0000 1.0000
32.2500 809.0000 1.0000
32.2600 768.0000 1.0000
32.2700 783.0000 1.0000
32.2800 846.0000 1.0000
32.2900 820.0000 1.0000
32.3000 805.0000 1.0000
32.3100 817.0000 1.0000
32.3200 788.0000 1.0000
32.3300 768.0000 1.0000
32.3400 791.0000 1.0000
32.3500 812.0000 1.0000
32.3600 796.0000 1.0000
32.3700 790.0000 1.0000
32.3800 773.0000 1.0000
32.3900 758.0000 1.0000
32.4000 764.0000 1.0000
32.4100 830.0000 1.0000
32.4200 824.0000 1.0000
32.4300 746.0000 1.0000
32.4400 767.0000 1.0000
32.4500 791.0000 1.0000
32.4600 807.0000 1.0000
32.4700 778.0000 1.0000
32.4800 761.0000 1.0000
32.4900 780.0000 1.0000
32.5000 791.0000 1.0000
32.5100 788.0000 1.0000
32.5200 816.0000 1.0000
32.5300 805.0000 1.0000
32.5400 807.0000 1.0000
32.5500 819.0000 1.0000
32.5600 791.0000 1.0000
32.5700 777.0000 1.0000
32.5800 785.0000 1.0000
32.5900 780.0000 1.0000
32.6000 833.0000 1.0000
32.6100 786.0000 1.0000
32.6200 774.0000 1.0000
32.6300 770.0000 1.0000
32.6400 779.0000 1.0000
32.6500 812.0000 1.0000
32.6600 796.0000 1.0000
32.6700 774.0000 1.0000
32.6800 766.0000 1.0000
32.6900 780.0000 1.0000
32.7000 809.0000 1.0000
32.7100 796.0000 1.0000
32.7200 803.0000 1.0000
32.7300 788.0000 1.0000
32.7400 768.0000 1.0000
32.7500 775.0000 1.0000
32.7600 801.0000 1.0000
32.7700 828.0000 1.0000
32.7800 853.0000 1.0000
32.7900 809.0000 1.0000
32.8000 788.0000 1.0000
32.8100 799.0000 1.0000
32.8200 788.0000 1.0000
32.8300 820.0000 1.0000
32.8400 824.0000 1.0000
32.8500 809.0000 1.0000
32.8600 795.0000 1.0000
32.8700 795.0000 1.0000
32.8800 839.0000 1.0000
32.8900 830.0000 1.0000
32.9000 843.0000 1.0000
32.9100 819.0000 1.0000
32.9200 854.0000 1.0000
32.9300 859.0000 1.0000
32.9400 902.0000 1.0000
32.9500 917.0000 1.0000
32.9600 917.0000 1.0000
32.9700 877.0000 1.0000
32.9800 915.0000 1.0000
32.9900 925.0000 1.0000
33.0000 974.0000 1.0000
33.0100 973.0000 1.0000
33.0200 1000.0000 1.0000
33.0300 980.0000 1.0000
33.0400 977.0000 1.0000
33.0500 993.0000 1.0000
33.0600 1093.0000 1.0000
33.0700 1076.0000 1.0000
33.0800 1090.0000 1.0000
33.0900 1134.0000 1.0000
33.1000 1181.0000 1.0000
33.1100 1162.0000 1.0000
33.1200 1126.0000 1.0000
33.1300 1198.0000 1.0000
33.1400 1159.0000 1.0000
33.1500 1160.0000 1.0000
33.1600 1146.0000 1.0000
33.1700 1113.0000 1.0000
33.1800 1137.0000 1.0000
33.1900 1087.0000 1.0000
33.2000 980.0000 1.0000
33.2100 1007.0000 1.0000
33.2200 1034.0000 1.0000
33.2300 999.0000 1.0000
33.2400 945.0000 1.0000
33.2500 954.0000 1.0000
33.2600 923.0000 1.0000
33.2700 937.0000 1.0000
33.2800 931.0000 1.0000
33.2900 933.0000 1.0000
33.3000 987.0000 1.0000
33.3100 970.0000 1.0000
33.3200 859.0000 1.0000
33.3300 876.0000 1.0000
33.3400 912.0000 1.0000
33.3500 928.0000 1.0000
33.3600 923.0000 1.0000
33.3700 918.0000 1.0000
33.3800 949.0000 1.0000
33.3900 959.0000 1.0000
33.4000 963.0000 1.0000
33.4100 956.0000 1.0000
33.4200 958.0000 1.0000
33.4300 990.0000 1.0000
33.4400 1015.0000 1.0000
33.4500 1006.0000 1.0000
33.4600 1077.0000 1.0000
33.4700 1128.0000 1.0000
33.4800 1100.0000 1.0000
33.4900 1180.0000 1.0000
33.5000 1173.0000 1.0000
33.5100 1196.0000 1.0000
33.5200 1248.0000 1.0000
33.5300 1258.0000 1.0000
33.5400 1369.0000 1.0000
33.5500 1406.0000 1.0000
33.5600 1407.0000 1.0000
33.5700 1459.0000 1.0000
33.5800 1607.0000 1.0000
33.5900 1651.0000 1.0000
33.6000 1707.0000 1.0000
33.6100 1804.0000 1.0000
33.6200 1829.0000 1.0000
33.6300 1862.0000 1.0000
33.6400 1930.0000 1.0000
33.6500 1986.0000 1.0000
33.6600 1975.0000 1.0000
33.6700 2072.0000 1.0000
33.6800 2047.0000 1.0000
33.6900 2027.0000 1.0000
33.7000 1991.0000 1.0000
33.7100 1928.0000 1.0000
33.7200 1926.0000 1.0000
33.7300 1894.0000 1.0000
33.7400 1813.0000 1.0000
33.7500 1755.0000 1.0000
33.7600 1721.0000 1.0000
33.7700 1681.0000 1.0000
33.7800 1542.0000 1.0000
33.7900 1533.0000 1.0000
33.8000 1412.0000 1.0000
33.8100 1342.0000 1.0000
33.8200 1237.0000 1.0000
33.8300 1223.0000 1.0000
33.8400 1191.0000 1.0000
33.8500 1158.0000 1.0000
33.8600 1136.0000 1.0000
33.8700 1082.0000 1.0000
33.8800 1100.0000 1.0000
33.8900 1054.0000 1.0000
33.9000 1039.0000 1.0000
33.9100 960.0000 1.0000
33.9200 958.0000 1.0000
33.9300 954.0000 1.0000
33.9400 884.0000 1.0000
33.9500 884.0000 1.0000
33.9600 929.0000 1.0000
33.9700 990.0000 1.0000
33.9800 867.0000 1.0000
33.9900 914.0000 1.0000
34.0000 910.0000 1.0000
34.0100 914.0000 1.0000
34.0200 844.0000 1.0000
34.0300 840.0000 1.0000
34.0400 837.0000 1.0000
34.0500 798.0000 1.0000
34.0600 840.0000 1.0000
34.0700 839.0000 1.0000
34.0800 838.0000 1.0000
34.0900 787.0000 1.0000
34.1000 770.0000 1.0000
34.1100 803.0000 1.0000
34.1200 788.0000 1.0000
34.1300 812.0000 1.0000
34.1400 807.0000 1.0000
34.1500 821.0000 1.0000
34.1600 752.0000 1.0000
34.1700 778.0000 1.0000
34.1800 769.0000 1.0000
34.1900 757.0000 1.0000
34.2000 794.0000 1.0000
34.2100 777.0000 1.0000
34.2200 753.0000 1.0000
34.2300 731.0000 1.0000
34.2400 806.0000 1.0000
34.2500 768.0000 1.0000
34.2600 785.0000 1.0000
34.2700 701.0000 1.0000
34.2800 719.0000 1.0000
34.2900 735.0000 1.0000
34.3000 755.0000 1.0000
34.3100 744.0000 1.0000
34.3200 722.0000 1.0000
34.3300 750.0000 1.0000
34.3400 756.0000 1.0000
34.3500 727.0000 1.0000
34.3600 762.0000 1.0000
34.3700 794.0000 1.0000
34.3800 741.0000 1.0000
34.3900 758.0000 1.0000
34.4000 675.0000 1.0000
34.4100 769.0000 1.0000
34.4200 721.0000 1.0000
34.4300 747.0000 1.0000
34.4400 714.0000 1.0000
34.4500 769.0000 1.0000
34.4600 715.0000 1.0000
34.4700 709.0000 1.0000
34.4800 709.0000 1.0000
34.4900 683.0000 1.0000
34.5000 740.0000 1.0000
34.5100 760.0000 1.0000
34.5200 725.0000 1.0000
34.5300 696.0000 1.0000
34.5400 719.0000 1.0000
34.5500 724.0000 1.0000
34.5600 727.0000 1.0000
34.5700 709.0000 1.0000
34.5800 733.0000 1.0000
34.5900 718.0000 1.0000
34.6000 732.0000 1.0000
34.6100 722.0000 1.0000
34.6200 750.0000 1.0000
34.6300 696.0000 1.0000
34.6400 711.0000 1.0000
34.6500 665.0000 1.0000
34.6600 709.0000 1.0000
34.6700 626.0000 1.0000
34.6800 661.0000 1.0000
34.6900 678.0000 1.0000
34.7000 693.0000 1.0000
34.7100 695.0000 1.0000
34.7200 684.0000 1.0000
34.7300 685.0000 1.0000
34.7400 651.0000 1.0000
34.7500 678.0000 1.0000
34.7600 687.0000 1.0000
34.7700 658.0000 1.0000
34.7800 688.0000 1.0000
34.7900 652.0000 1.0000
34.8000 693.0000 1.0000
34.8100 704.0000 1.0000
34.8200 729.0000 1.0000
34.8300 729.0000 1.0000
34.8400 702.0000 1.0000
34.8500 676.0000 1.0000
34.8600 660.0000 1.0000
34.8700 675.0000 1.0000
34.8800 666.0000 1.0000
34.8900 662.0000 1.0000
34.9000 669.0000 1.0000
34.9100 657.0000 1.0000
34.9200 676.0000 1.0000
34.9300 651.0000 1.0000
34.9400 682.0000 1.0000
34.9500 657.0000 1.0000
34.9600 672.0000 1.0000
34.9700 657.0000 1.0000
34.9800 709.0000 1.0000
34.9900 663.0000 1.0000
35.0000 684.0000 1.0000
35.0100 685.0000 1.0000
35.0200 724.0000 1.0000
35.0300 658.0000 1.0000
35.0400 678.0000 1.0000
35.0500 698.0000 1.0000
35.0600 737.0000 1.0000
35.0700 660.0000 1.0000
35.0800 678.0000 1.0000
35.0900 658.0000 1.0000
35.1000 655.0000 1.0000
35.1100 689.0000 1.0000
35.1200 667.0000 1.0000
35.1300 701.0000 1.0000
35.1400 682.0000 1.0000
35.1500 697.0000 1.0000
35.1600 656.0000 1.0000
35.1700 651.0000 1.0000
35.1800 683.0000 1.0000
35.1900 662.0000 1.0000
35.2000 676.0000 1.0000
35.2100 639.0000 1.0000
35.2200 665.0000 1.0000
35.2300 697.0000 1.0000
35.2400 699.0000 1.0000
35.2500 649.0000 1.0000
35.2600 683.0000 1.0000
35.2700 700.0000 1.0000
35.2800 707.0000 1.0000
35.2900 676.0000 1.0000
35.3000 674.0000 1.0000
35.3100 672.0000 1.0000
35.3200 688.0000 1.0000
35.3300 648.0000 1.0000
35.3400 732.0000 1.0000
35.3500 676.0000 1.0000
35.3600 721.0000 1.0000
35.3700 709.0000 1.0000
35.3800 729.0000 1.0000
35.3900 731.0000 1.0000
35.4000 769.0000 1.0000
35.4100 748.0000 1.0000
35.4200 781.0000 1.0000
35.4300 751.0000 1.0000
35.4400 768.0000 1.0000
35.4500 787.0000 1.0000
35.4600 774.0000 1.0000
35.4700 755.0000 1.0000
35.4800 788.0000 1.0000
35.4900 862.0000 1.0000
35.5000 866.0000 1.0000
35.5100 883.0000 1.0000
35.5200 911.0000 1.0000
35.5300 972.0000 1.0000
35.5400 1024.0000 1.0000
35.5500 1037.0000 1.0000
35.5600 1098.0000 1.0000
35.5700 1093.0000 1.0000
35.5800 1136.0000 1.0000
35.5900 1147.0000 1.0000
35.6000 1141.0000 1.0000
35.6100 1133.0000 1.0000
35.6200 1063.0000 1.0000
35.6300 1110.0000 1.0000
35.6400 999.0000 1.0000
35.6500 988.0000 1.0000
35.6600 999.0000 1.0000
35.6700 933.0000 1.0000
35.6800 922.0000 1.0000
35.6900 910.0000 1.0000
35.7000 904.0000 1.0000
35.7100 850.0000 1.0000
35.7200 830.0000 1.0000
35.7300 869.0000 1.0000
35.7400 766.0000 1.0000
35.7500 749.0000 1.0000
35.7600 748.0000 1.0000
35.7700 721.0000 1.0000
35.7800 720.0000 1.0000
35.7900 725.0000 1.0000
35.8000 676.0000 1.0000
35.8100 654.0000 1.0000
35.8200 681.0000 1.0000
35.8300 725.0000 1.0000
35.8400 690.0000 1.0000
35.8500 661.0000 1.0000
35.8600 686.0000 1.0000
35.8700 660.0000 1.0000
35.8800 660.0000 1.0000
35.8900 680.0000 1.0000
35.9000 631.0000 1.0000
35.9100 627.0000 1.0000
35.9200 637.0000 1.0000
35.9300 647.0000 1.0000
35.9400 634.0000 1.0000
35.9500 607.0000 1.0000
35.9600 634.0000 1.0000
35.9700 613.0000 1.0000
35.9800 608.0000 1.0000
35.9900 620.0000 1.0000
36.0000 666.0000 1.0000
36.0100 665.0000 1.0000
36.0200 666.0000 1.0000
36.0300 647.0000 1.0000
36.0400 623.0000 1.0000
36.0500 592.0000 1.0000
36.0600 622.0000 1.0000
36.0700 653.0000 1.0000
36.0800 616.0000 1.0000
36.0900 648.0000 1.0000
36.1000 648.0000 1.0000
36.1100 620.0000 1.0000
36.1200 622.0000 1.0000
36.1300 639.0000 1.0000
36.1400 610.0000 1.0000
36.1500 607.0000 1.0000
36.1600 628.0000 1.0000
36.1700 615.0000 1.0000
36.1800 632.0000 1.0000
36.1900 641.0000 1.0000
36.2000 650.0000 1.0000
36.2100 649.0000 1.0000
36.2200 622.0000 1.0000
36.2300 631.0000 1.0000
36.2400 621.0000 1.0000
36.2500 619.0000 1.0000
36.2600 653.0000 1.0000
36.2700 641.0000 1.0000
36.2800 647.0000 1.0000
36.2900 650.0000 1.0000
36.3000 644.0000 1.0000
36.3100 651.0000 1.0000
36.3200 610.0000 1.0000
36.3300 632.0000 1.0000
36.3400 622.0000 1.0000
36.3500 659.0000 1.0000
36.3600 627.0000 1.0000
36.3700 632.0000 1.0000
36.3800 666.0000 1.0000
36.3900 627.0000 1.0000
36.4000 616.0000 1.0000
36.4100 689.0000 1.0000
36.4200 626.0000 1.0000
36.4300 618.0000 1.0000
36.4400 626.0000 1.0000
36.4500 683.0000 1.0000
36.4600 631.0000 1.0000
36.4700 661.0000 1.0000
36.4800 637.0000 1.0000
36.4900 650.0000 1.0000
36.5000 620.0000 1.0000
36.5100 589.0000 1.0000
36.5200 593.0000 1.0000
36.5300 657.0000 1.0000
36.5400 606.0000 1.0000
36.5500 637.0000 1.0000
36.5600 599.0000 1.0000
36.5700 628.0000 1.0000
36.5800 628.0000 1.0000
36.5900 625.0000 1.0000
36.6000 616.0000 1.0000
36.6100 662.0000 1.0000
36.6200 656.0000 1.0000
36.6300 593.0000 1.0000
36.6400 584.0000 1.0000
36.6500 640.0000 1.0000
36.6600 642.0000 1.0000
36.6700 626.0000 1.0000
36.6800 643.0000 1.0000
36.6900 622.0000 1.0000
36.7000 617.0000 1.0000
36.7100 613.0000 1.0000
36.7200 665.0000 1.0000
36.7300 657.0000 1.0000
36.7400 580.0000 1.0000
36.7500 609.0000 1.0000
36.7600 613.0000 1.0000
36.7700 608.0000 1.0000
36.7800 650.0000 1.0000
36.7900 639.0000 1.0000
36.8000 629.0000 1.0000
36.8100 638.0000 1.0000
36.8200 652.0000 1.0000
36.8300 604.0000 1.0000
36.8400 571.0000 1.0000
36.8500 639.0000 1.0000
36.8600 627.0000 1.0000
36.8700 639.0000 1.0000
36.8800 609.0000 1.0000
36.8900 617.0000 1.0000
36.9000 622.0000 1.0000
36.9100 619.0000 1.0000
36.9200 627.0000 1.0000
36.9300 674.0000 1.0000
36.9400 668.0000 1.0000
36.9500 634.0000 1.0000
36.9600 626.0000 1.0000
36.9700 665.0000 1.0000
36.9800 575.0000 1.0000
36.9900 635.0000 1.0000
37.0000 645.0000 1.0000
37.0100 617.0000 1.0000
37.0200 657.0000 1.0000
37.0300 625.0000 1.0000
37.0400 613.0000 1.0000
37.0500 647.0000 1.0000
37.0600 646.0000 1.0000
37.0700 623.0000 1.0000
37.0800 628.0000 1.0000
37.0900 621.0000 1.0000
37.1000 636.0000 1.0000
37.1100 655.0000 1.0000
37.1200 630.0000 1.0000
37.1300 603.0000 1.0000
37.1400 605.0000 1.0000
37.1500 605.0000 1.0000
37.1600 648.0000 1.0000
37.1700 697.0000 1.0000
37.1800 607.0000 1.0000
37.1900 640.0000 1.0000
37.2000 628.0000 1.0000
37.2100 658.0000 1.0000
37.2200 672.0000 1.0000
37.2300 670.0000 1.0000
37.2400 681.0000 1.0000
37.2500 686.0000 1.0000
37.2600 687.0000 1.0000
37.2700 657.0000 1.0000
37.2800 644.0000 1.0000
37.2900 715.0000 1.0000
37.3000 699.0000 1.0000
37.3100 663.0000 1.0000
37.3200 748.0000 1.0000
37.3300 740.0000 1.0000
37.3400 756.0000 1.0000
37.3500 760.0000 1.0000
37.3600 767.0000 1.0000
37.3700 798.0000 1.0000
37.3800 825.0000 1.0000
37.3900 827.0000 1.0000
37.4000 838.0000 1.0000
37.4100 872.0000 1.0000
37.4200 881.0000 1.0000
37.4300 904.0000 1.0000
37.4400 948.0000 1.0000
37.4500 921.0000 1.0000
37.4600 981.0000 1.0000
37.4700 1014.0000 1.0000
37.4800 1092.0000 1.0000
37.4900 1051.0000 1.0000
37.5000 1182.0000 1.0000
37.5100 1230.0000 1.0000
37.5200 1311.0000 1.0000
37.5300 1392.0000 1.0000
37.5400 1421.0000 1.0000
37.5500 1511.0000 1.0000
37.5600 1599.0000 1.0000
37.5700 1732.0000 1.0000
37.5800 1782.0000 1.0000
37.5900 1895.0000 1.0000
37.6000 2097.0000 1.0000
37.6100 2101.0000 1.0000
37.6200 2198.0000 1.0000
37.6300 2421.0000 1.0000
37.6400 2603.0000 1.0000
37.6500 2765.0000 1.0000
37.6600 2886.0000 1.0000
37.6700 2948.0000 1.0000
37.6800 3205.0000 1.0000
37.6900 3316.0000 1.0000
37.7000 3341.0000 1.0000
37.7100 3416.0000 1.0000
37.7200 3408.0000 1.0000
37.7300 3435.0000 1.0000
37.7400 3328.0000 1.0000
37.7500 3353.0000 1.0000
37.7600 3291.0000 1.0000
37.7700 3283.0000 1.0000
37.7800 3097.0000 1.0000
37.7900 3016.0000 1.0000
37.8000 2884.0000 1.0000
37.8100 2824.0000 1.0000
37.8200 2688.0000 1.0000
37.8300 2580.0000 1.0000
37.8400 2432.0000 1.0000
37.8500 2274.0000 1.0000
37.8600 2225.0000 1.0000
37.8700 2059.0000 1.0000
37.8800 1892.0000 1.0000
37.8900 1794.0000 1.0000
37.9000 1687.0000 1.0000
37.9100 1535.0000 1.0000
37.9200 1442.0000 1.0000
37.9300 1412.0000 1.0000
37.9400 1311.0000 1.0000
37.9500 1254.0000 1.0000
37.9600 1183.0000 1.0000
37.9700 1145.0000 1.0000
37.9800 1054.0000 1.0000
37.9900 1026.0000 1.0000
38.0000 980.0000 1.0000
38.0100 910.0000 1.0000
38.0200 893.0000 1.0000
38.0300 891.0000 1.0000
38.0400 832.0000 1.0000
38.0500 812.0000 1.0000
38.0600 782.0000 1.0000
38.0700 793.0000 1.0000
38.0800 736.0000 1.0000
38.0900 761.0000 1.0000
38.1000 730.0000 1.0000
38.1100 688.0000 1.0000
38.1200 695.0000 1.0000
38.1300 685.0000 1.0000
38.1400 655.0000 1.0000
38.1500 707.0000 1.0000
38.1600 674.0000 1.0000
38.1700 680.0000 1.0000
38.1800 611.0000 1.0000
38.1900 664.0000 1.0000
38.2000 630.0000 1.0000
38.2100 641.0000 1.0000
38.2200 615.0000 1.0000
38.2300 628.0000 1.0000
38.2400 605.0000 1.0000
38.2500 648.0000 1.0000
38.2600 559.0000 1.0000
38.2700 585.0000 1.0000
38.2800 633.0000 1.0000
38.2900 617.0000 1.0000
38.3000 550.0000 1.0000
38.3100 576.0000 1.0000
38.3200 577.0000 1.0000
38.3300 604.0000 1.0000
38.3400 573.0000 1.0000
38.3500 600.0000 1.0000
38.3600 622.0000 1.0000
38.3700 608.0000 1.0000
38.3800 560.0000 1.0000
38.3900 596.0000 1.0000
38.4000 572.0000 1.0000
38.4100 628.0000 1.0000
38.4200 600.0000 1.0000
38.4300 563.0000 1.0000
38.4400 591.0000 1.0000
38.4500 592.0000 1.0000
38.4600 563.0000 1.0000
38.4700 583.0000 1.0000
38.4800 555.0000 1.0000
38.4900 567.0000 1.0000
38.5000 582.0000 1.0000
38.5100 602.0000 1.0000
38.5200 575.0000 1.0000
38.5300 586.0000 1.0000
38.5400 602.0000 1.0000
38.5500 576.0000 1.0000
38.5600 569.0000 1.0000
38.5700 544.0000 1.0000
38.5800 571.0000 1.0000
38.5900 580.0000 1.0000
38.6000 613.0000 1.0000
38.6100 587.0000 1.0000
38.6200 553.0000 1.0000
38.6300 549.0000 1.0000
38.6400 560.0000 1.0000
38.6500 577.0000 1.0000
38.6600 579.0000 1.0000
38.6700 560.0000 1.0000
38.6800 580.0000 1.0000
38.6900 562.0000 1.0000
38.7000 625.0000 1.0000
38.7100 646.0000 1.0000
38.7200 633.0000 1.0000
38.7300 599.0000 1.0000
38.7400 633.0000 1.0000
38.7500 563.0000 1.0000
38.7600 582.0000 1.0000
38.7700 596.0000 1.0000
38.7800 626.0000 1.0000
38.7900 654.0000 1.0000
38.8000 596.0000 1.0000
38.8100 644.0000 1.0000
38.8200 585.0000 1.0000
38.8300 603.0000 1.0000
38.8400 609.0000 1.0000
38.8500 617.0000 1.0000
38.8600 619.0000 1.0000
38.8700 581.0000 1.0000
38.8800 586.0000 1.0000
38.8900 606.0000 1.0000
38.9000 570.0000 1.0000
38.9100 563.0000 1.0000
38.9200 583.0000 1.0000
38.9300 585.0000 1.0000
38.9400 570.0000 1.0000
38.9500 532.0000 1.0000
38.9600 573.0000 1.0000
38.9700 586.0000 1.0000
38.9800 527.0000 1.0000
38.9900 540.0000 1.0000
39.0000 569.0000 1.0000
39.0100 584.0000 1.0000
39.0200 541.0000 1.0000
39.0300 548.0000 1.0000
39.0400 553.0000 1.0000
39.0500 539.0000 1.0000
39.0600 559.0000 1.0000
39.0700 560.0000 1.0000
39.0800 560.0000 1.0000
39.0900 537.0000 1.0000
39.1000 547.0000 1.0000
39.1100 556.0000 1.0000
39.1200 543.0000 1.0000
39.1300 554.0000 1.0000
39.1400 555.0000 1.0000
39.1500 607.0000 1.0000
39.1600 575.0000 1.0000
39.1700 522.0000 1.0000
39.1800 562.0000 1.0000
39.1900 510.0000 1.0000
39.2000 528.0000 1.0000
39.2100 563.0000 1.0000
39.2200 507.0000 1.0000
39.2300 538.0000 1.0000
39.2400 545.0000 1.0000
39.2500 565.0000 1.0000
39.2600 545.0000 1.0000
39.2700 501.0000 1.0000
39.2800 556.0000 1.0000
39.2900 532.0000 1.0000
39.3000 572.0000 1.0000
39.3100 533.0000 1.0000
39.3200 552.0000 1.0000
39.3300 514.0000 1.0000
39.3400 551.0000 1.0000
39.3500 545.0000 1.0000
39.3600 606.0000 1.0000
39.3700 579.0000 1.0000
39.3800 526.0000 1.0000
39.3900 516.0000 1.0000
39.4000 543.0000 1.0000
39.4100 564.0000 1.0000
39.4200 558.0000 1.0000
39.4300 515.0000 1.0000
39.4400 535.0000 1.0000
39.4500 535.0000 1.0000
39.4600 555.0000 1.0000
39.4700 531.0000 1.0000
39.4800 561.0000 1.0000
39.4900 541.0000 1.0000
39.5000 537.0000 1.0000
39.5100 507.0000 1.0000
39.5200 541.0000 1.0000
39.5300 518.0000 1.0000
39.5400 548.0000 1.0000
39.5500 542.0000 1.0000
39.5600 561.0000 1.0000
39.5700 528.0000 1.0000
39.5800 580.0000 1.0000
39.5900 548.0000 1.0000
39.6000 502.0000 1.0000
39.6100 522.0000 1.0000
39.6200 550.0000 1.0000
39.6300 528.0000 1.0000
39.6400 511.0000 1.0000
39.6500 487.0000 1.0000
39.6600 523.0000 1.0000
39.6700 539.0000 1.0000
39.6800 547.0000 1.0000
39.6900 544.0000 1.0000
39.7000 522.0000 1.0000
39.7100 539.0000 1.0000
39.7200 545.0000 1.0000
39.7300 537.0000 1.0000
39.7400 505.0000 1.0000
39.7500 537.0000 1.0000
39.7600 533.0000 1.0000
39.7700 485.0000 1.0000
39.7800 539.0000 1.0000
39.7900 535.0000 1.0000
39.8000 514.0000 1.0000
39.8100 519.0000 1.0000
39.8200 500.0000 1.0000
39.8300 526.0000 1.0000
39.8400 524.0000 1.0000
39.8500 583.0000 1.0000
39.8600 546.0000 1.0000
39.8700 528.0000 1.0000
39.8800 550.0000 1.0000
39.8900 544.0000 1.0000
39.9000 557.0000 1.0000
39.9100 516.0000 1.0000
39.9200 555.0000 1.0000
39.9300 533.0000 1.0000
39.9400 503.0000 1.0000
39.9500 530.0000 1.0000
39.9600 483.0000 1.0000
39.9700 499.0000 1.0000
39.9800 526.0000 1.0000
39.9900 515.0000 1.0000
40.0000 484.0000 1.0000
40.0100 548.0000 1.0000
40.0200 515.0000 1.0000
40.0300 516.0000 1.0000
40.0400 517.0000 1.0000
40.0500 533.0000 1.0000
40.0600 514.0000 1.0000
40.0700 522.0000 1.0000
40.0800 480.0000 1.0000
40.0900 556.0000 1.0000
40.1000 536.0000 1.0000
40.1100 526.0000 1.0000
40.1200 496.0000 1.0000
40.1300 494.0000 1.0000
40.1400 552.0000 1.0000
40.1500 542.0000 1.0000
40.1600 527.0000 1.0000
40.1700 534.0000 1.0000
40.1800 553.0000 1.0000
40.1900 527.0000 1.0000
40.2000 512.0000 1.0000
40.2100 557.0000 1.0000
40.2200 541.0000 1.0000
40.2300 508.0000 1.0000
40.2400 517.0000 1.0000
40.2500 527.0000 1.0000
40.2600 499.0000 1.0000
40.2700 522.0000 1.0000
40.2800 507.0000 1.0000
40.2900 516.0000 1.0000
40.3000 550.0000 1.0000
40.3100 542.0000 1.0000
40.3200 530.0000 1.0000
40.3300 476.0000 1.0000
40.3400 505.0000 1.0000
40.3500 514.0000 1.0000
40.3600 516.0000 1.0000
40.3700 521.0000 1.0000
40.3800 528.0000 1.0000
40.3900 509.0000 1.0000
40.4000 531.0000 1.0000
40.4100 521.0000 1.0000
40.4200 533.0000 1.0000
40.4300 499.0000 1.0000
40.4400 500.0000 1.0000
40.4500 546.0000 1.0000
40.4600 547.0000 1.0000
40.4700 500.0000 1.0000
40.4800 519.0000 1.0000
40.4900 542.0000 1.0000
40.5000 536.0000 1.0000
40.5100 502.0000 1.0000
40.5200 525.0000 1.0000
40.5300 485.0000 1.0000
40.5400 520.0000 1.0000
40.5500 527.0000 1.0000
40.5600 540.0000 1.0000
40.5700 542.0000 1.0000
40.5800 515.0000 1.0000
40.5900 492.0000 1.0000
40.6000 512.0000 1.0000
40.6100 563.0000 1.0000
40.6200 546.0000 1.0000
40.6300 562.0000 1.0000
40.6400 557.0000 1.0000
40.6500 547.0000 1.0000
40.6600 514.0000 1.0000
40.6700 514.0000 1.0000
40.6800 509.0000 1.0000
40.6900 566.0000 1.0000
40.7000 536.0000 1.0000
40.7100 571.0000 1.0000
40.7200 580.0000 1.0000
40.7300 542.0000 1.0000
40.7400 553.0000 1.0000
40.7500 576.0000 1.0000
40.7600 566.0000 1.0000
40.7700 541.0000 1.0000
40.7800 547.0000 1.0000
40.7900 605.0000 1.0000
40.8000 615.0000 1.0000
40.8100 583.0000 1.0000
40.8200 601.0000 1.0000
40.8300 599.0000 1.0000
40.8400 598.0000 1.0000
40.8500 588.0000 1.0000
40.8600 562.0000 1.0000
40.8700 602.0000 1.0000
40.8800 564.0000 1.0000
40.8900 553.0000 1.0000
40.9000 585.0000 1.0000
40.9100 564.0000 1.0000
40.9200 594.0000 1.0000
40.9300 601.0000 1.0000
40.9400 591.0000 1.0000
40.9500 533.0000 1.0000
40.9600 578.0000 1.0000
40.9700 547.0000 1.0000
40.9800 561.0000 1.0000
40.9900 503.0000 1.0000
41.0000 527.0000 1.0000
41.0100 534.0000 1.0000
41.0200 519.0000 1.0000
41.0300 517.0000 1.0000
41.0400 515.0000 1.0000
41.0500 508.0000 1.0000
41.0600 526.0000 1.0000
41.0700 530.0000 1.0000
41.0800 545.0000 1.0000
41.0900 505.0000 1.0000
41.1000 487.0000 1.0000
41.1100 497.0000 1.0000
41.1200 548.0000 1.0000
41.1300 527.0000 1.0000
41.1400 537.0000 1.0000
41.1500 527.0000 1.0000
41.1600 501.0000 1.0000
41.1700 546.0000 1.0000
41.1800 510.0000 1.0000
41.1900 536.0000 1.0000
41.2000 506.0000 1.0000
41.2100 505.0000 1.0000
41.2200 525.0000 1.0000
41.2300 513.0000 1.0000
41.2400 494.0000 1.0000
41.2500 510.0000 1.0000
41.2600 519.0000 1.0000
41.2700 494.0000 1.0000
41.2800 505.0000 1.0000
41.2900 535.0000 1.0000
41.3000 519.0000 1.0000
41.3100 506.0000 1.0000
41.3200 498.0000 1.0000
41.3300 538.0000 1.0000
41.3400 549.0000 1.0000
41.3500 504.0000 1.0000
41.3600 537.0000 1.0000
41.3700 516.0000 1.0000
41.3800 484.0000 1.0000
41.3900 484.0000 1.0000
41.4000 525.0000 1.0000
41.4100 534.0000 1.0000
41.4200 522.0000 1.0000
41.4300 480.0000 1.0000
41.4400 515.0000 1.0000
41.4500 488.0000 1.0000
41.4600 479.0000 1.0000
41.4700 491.0000 1.0000
41.4800 526.0000 1.0000
41.4900 530.0000 1.0000
41.5000 498.0000 1.0000
41.5100 491.0000 1.0000
41.5200 516.0000 1.0000
41.5300 505.0000 1.0000
41.5400 543.0000 1.0000
41.5500 540.0000 1.0000
41.5600 484.0000 1.0000
41.5700 480.0000 1.0000
41.5800 511.0000 1.0000
41.5900 468.0000 1.0000
41.6000 499.0000 1.0000
41.6100 488.0000 1.0000
41.6200 481.0000 1.0000
41.6300 502.0000 1.0000
41.6400 526.0000 1.0000
41.6500 518.0000 1.0000
41.6600 523.0000 1.0000
41.6700 500.0000 1.0000
41.6800 474.0000 1.0000
41.6900 494.0000 1.0000
41.7000 492.0000 1.0000
41.7100 485.0000 1.0000
41.7200 511.0000 1.0000
41.7300 515.0000 1.0000
41.7400 547.0000 1.0000
41.7500 454.0000 1.0000
41.7600 492.0000 1.0000
41.7700 522.0000 1.0000
41.7800 489.0000 1.0000
41.7900 514.0000 1.0000
41.8000 509.0000 1.0000
41.8100 519.0000 1.0000
41.8200 497.0000 1.0000
41.8300 482.0000 1.0000
41.8400 506.0000 1.0000
41.8500 493.0000 1.0000
41.8600 474.0000 1.0000
41.8700 488.0000 1.0000
41.8800 507.0000 1.0000
41.8900 487.0000 1.0000
41.9000 488.0000 1.0000
41.9100 488.0000 1.0000
41.9200 501.0000 1.0000
41.9300 537.0000 1.0000
41.9400 511.0000 1.0000
41.9500 514.0000 1.0000
41.9600 500.0000 1.0000
41.9700 502.0000 1.0000
41.9800 506.0000 1.0000
41.9900 491.0000 1.0000
42.0000 479.0000 1.0000
42.0100 509.0000 1.0000
42.0200 480.0000 1.0000
42.0300 491.0000 1.0000
42.0400 494.0000 1.0000
42.0500 466.0000 1.0000
42.0600 531.0000 1.0000
42.0700 500.0000 1.0000
42.0800 499.0000 1.0000
42.0900 517.0000 1.0000
42.1000 484.0000 1.0000
42.1100 511.0000 1.0000
42.1200 516.0000 1.0000
42.1300 502.0000 1.0000
42.1400 496.0000 1.0000
42.1500 496.0000 1.0000
42.1600 535.0000 1.0000
42.1700 503.0000 1.0000
42.1800 521.0000 1.0000
42.1900 502.0000 1.0000
42.2000 557.0000 1.0000
42.2100 508.0000 1.0000
42.2200 563.0000 1.0000
42.2300 538.0000 1.0000
42.2400 506.0000 1.0000
42.2500 525.0000 1.0000
42.2600 513.0000 1.0000
42.2700 519.0000 1.0000
42.2800 525.0000 1.0000
42.2900 545.0000 1.0000
42.3000 537.0000 1.0000
42.3100 519.0000 1.0000
42.3200 533.0000 1.0000
42.3300 526.0000 1.0000
42.3400 532.0000 1.0000
42.3500 559.0000 1.0000
42.3600 545.0000 1.0000
42.3700 568.0000 1.0000
42.3800 568.0000 1.0000
42.3900 518.0000 1.0000
42.4000 565.0000 1.0000
42.4100 604.0000 1.0000
42.4200 573.0000 1.0000
42.4300 556.0000 1.0000
42.4400 545.0000 1.0000
42.4500 530.0000 1.0000
42.4600 515.0000 1.0000
42.4700 527.0000 1.0000
42.4800 570.0000 1.0000
42.4900 513.0000 1.0000
42.5000 559.0000 1.0000
42.5100 544.0000 1.0000
42.5200 566.0000 1.0000
42.5300 569.0000 1.0000
42.5400 555.0000 1.0000
42.5500 532.0000 1.0000
42.5600 527.0000 1.0000
42.5700 534.0000 1.0000
42.5800 547.0000 1.0000
42.5900 531.0000 1.0000
42.6000 518.0000 1.0000
42.6100 529.0000 1.0000
42.6200 542.0000 1.0000
42.6300 513.0000 1.0000
42.6400 526.0000 1.0000
42.6500 510.0000 1.0000
42.6600 537.0000 1.0000
42.6700 496.0000 1.0000
42.6800 508.0000 1.0000
42.6900 535.0000 1.0000
42.7000 491.0000 1.0000
42.7100 470.0000 1.0000
42.7200 495.0000 1.0000
42.7300 494.0000 1.0000
42.7400 524.0000 1.0000
42.7500 530.0000 1.0000
42.7600 529.0000 1.0000
42.7700 521.0000 1.0000
42.7800 493.0000 1.0000
42.7900 496.0000 1.0000
42.8000 541.0000 1.0000
42.8100 497.0000 1.0000
42.8200 495.0000 1.0000
42.8300 528.0000 1.0000
42.8400 489.0000 1.0000
42.8500 471.0000 1.0000
42.8600 494.0000 1.0000
42.8700 505.0000 1.0000
42.8800 505.0000 1.0000
42.8900 538.0000 1.0000
42.9000 478.0000 1.0000
42.9100 477.0000 1.0000
42.9200 485.0000 1.0000
42.9300 493.0000 1.0000
42.9400 476.0000 1.0000
42.9500 495.0000 1.0000
42.9600 464.0000 1.0000
42.9700 480.0000 1.0000
42.9800 467.0000 1.0000
42.9900 467.0000 1.0000
43.0000 459.0000 1.0000
43.0100 498.0000 1.0000
43.0200 470.0000 1.0000
43.0300 461.0000 1.0000
43.0400 486.0000 1.0000
43.0500 493.0000 1.0000
43.0600 476.0000 1.0000
43.0700 509.0000 1.0000
43.0800 483.0000 1.0000
43.0900 487.0000 1.0000
43.1000 517.0000 1.0000
43.1100 499.0000 1.0000
43.1200 470.0000 1.0000
43.1300 482.0000 1.0000
43.1400 470.0000 1.0000
43.1500 501.0000 1.0000
43.1600 520.0000 1.0000
43.1700 463.0000 1.0000
43.1800 465.0000 1.0000
43.1900 475.0000 1.0000
43.2000 469.0000 1.0000
43.2100 499.0000 1.0000
43.2200 506.0000 1.0000
43.2300 481.0000 1.0000
43.2400 464.0000 1.0000
43.2500 509.0000 1.0000
43.2600 496.0000 1.0000
43.2700 471.0000 1.0000
43.2800 468.0000 1.0000
43.2900 492.0000 1.0000
43.3000 480.0000 1.0000
43.3100 480.0000 1.0000
43.3200 456.0000 1.0000
43.3300 480.0000 1.0000
43.3400 489.0000 1.0000
43.3500 474.0000 1.0000
43.3600 500.0000 1.0000
43.3700 471.0000 1.0000
43.3800 510.0000 1.0000
43.3900 472.0000 1.0000
43.4000 478.0000 1.0000
43.4100 474.0000 1.0000
43.4200 495.0000 1.0000
43.4300 468.0000 1.0000
43.4400 490.0000 1.0000
43.4500 500.0000 1.0000
43.4600 481.0000 1.0000
43.4700 484.0000 1.0000
43.4800 502.0000 1.0000
43.4900 460.0000 1.0000
43.5000 522.0000 1.0000
43.5100 497.0000 1.0000
43.5200 496.0000 1.0000
43.5300 466.0000 1.0000
43.5400 488.0000 1.0000
43.5500 512.0000 1.0000
43.5600 505.0000 1.0000
43.5700 481.0000 1.0000
43.5800 495.0000 1.0000
43.5900 452.0000 1.0000
43.6000 491.0000 1.0000
43.6100 486.0000 1.0000
43.6200 474.0000 1.0000
43.6300 500.0000 1.0000
43.6400 462.0000 1.0000
43.6500 491.0000 1.0000
43.6600 467.0000 1.0000
43.6700 467.0000 1.0000
43.6800 481.0000 1.0000
43.6900 489.0000 1.0000
43.7000 507.0000 1.0000
43.7100 487.0000 1.0000
43.7200 490.0000 1.0000
43.7300 510.0000 1.0000
43.7400 497.0000 1.0000
43.7500 468.0000 1.0000
43.7600 488.0000 1.0000
43.7700 492.0000 1.0000
43.7800 495.0000 1.0000
43.7900 465.0000 1.0000
43.8000 514.0000 1.0000
43.8100 481.0000 1.0000
43.8200 463.0000 1.0000
43.8300 489.0000 1.0000
43.8400 472.0000 1.0000
43.8500 491.0000 1.0000
43.8600 509.0000 1.0000
43.8700 475.0000 1.0000
43.8800 481.0000 1.0000
43.8900 493.0000 1.0000
43.9000 455.0000 1.0000
43.9100 503.0000 1.0000
43.9200 442.0000 1.0000
43.9300 461.0000 1.0000
43.9400 496.0000 1.0000
43.9500 467.0000 1.0000
43.9600 468.0000 1.0000
43.9700 497.0000 1.0000
43.9800 487.0000 1.0000
43.9900 467.0000 1.0000
44.0000 510.0000 1.0000
44.0100 454.0000 1.0000
44.0200 499.0000 1.0000
44.0300 510.0000 1.0000
44.0400 485.0000 1.0000
44.0500 474.0000 1.0000
44.0600 487.0000 1.0000
44.0700 498.0000 1.0000
44.0800 487.0000 1.0000
44.0900 499.0000 1.0000
44.1000 489.0000 1.0000
44.1100 455.0000 1.0000
44.1200 445.0000 1.0000
44.1300 508.0000 1.0000
44.1400 481.0000 1.0000
44.1500 489.0000 1.0000
44.1600 482.0000 1.0000
44.1700 468.0000 1.0000
44.1800 480.0000 1.0000
44.1900 482.0000 1.0000
44.2000 485.0000 1.0000
44.2100 486.0000 1.0000
44.2200 471.0000 1.0000
44.2300 462.0000 1.0000
44.2400 476.0000 1.0000
44.2500 473.0000 1.0000
44.2600 481.0000 1.0000
44.2700 480.0000 1.0000
44.2800 459.0000 1.0000
44.2900 450.0000 1.0000
44.3000 485.0000 1.0000
44.3100 498.0000 1.0000
44.3200 466.0000 1.0000
44.3300 426.0000 1.0000
44.3400 463.0000 1.0000
44.3500 500.0000 1.0000
44.3600 490.0000 1.0000
44.3700 481.0000 1.0000
44.3800 483.0000 1.0000
44.3900 477.0000 1.0000
44.4000 474.0000 1.0000
44.4100 479.0000 1.0000
44.4200 473.0000 1.0000
44.4300 469.0000 1.0000
44.4400 494.0000 1.0000
44.4500 467.0000 1.0000
44.4600 510.0000 1.0000
44.4700 468.0000 1.0000
44.4800 466.0000 1.0000
44.4900 508.0000 1.0000
44.5000 487.0000 1.0000
44.5100 460.0000 1.0000
44.5200 496.0000 1.0000
44.5300 476.0000 1.0000
44.5400 466.0000 1.0000
44.5500 453.0000 1.0000
44.5600 469.0000 1.0000
44.5700 481.0000 1.0000
44.5800 467.0000 1.0000
44.5900 466.0000 1.0000
44.6000 489.0000 1.0000
44.6100 484.0000 1.0000
44.6200 484.0000 1.0000
44.6300 483.0000 1.0000
44.6400 476.0000 1.0000
44.6500 460.0000 1.0000
44.6600 489.0000 1.0000
44.6700 466.0000 1.0000
44.6800 439.0000 1.0000
44.6900 470.0000 1.0000
44.7000 478.0000 1.0000
44.7100 456.0000 1.0000
44.7200 458.0000 1.0000
44.7300 463.0000 1.0000
44.7400 471.0000 1.0000
44.7500 471.0000 1.0000
44.7600 472.0000 1.0000
44.7700 464.0000 1.0000
44.7800 479.0000 1.0000
44.7900 437.0000 1.0000
44.8000 463.0000 1.0000
44.8100 504.0000 1.0000
44.8200 470.0000 1.0000
44.8300 458.0000 1.0000
44.8400 479.0000 1.0000
44.8500 497.0000 1.0000
44.8600 483.0000 1.0000
44.8700 433.0000 1.0000
44.8800 455.0000 1.0000
44.8900 467.0000 1.0000
44.9000 455.0000 1.0000
44.9100 461.0000 1.0000
44.9200 465.0000 1.0000
44.9300 499.0000 1.0000
44.9400 471.0000 1.0000
44.9500 473.0000 1.0000
44.9600 485.0000 1.0000
44.9700 460.0000 1.0000
44.9800 451.0000 1.0000
44.9900 474.0000 1.0000
45.0000 466.0000 1.0000
45.0100 496.0000 1.0000
45.0200 450.0000 1.0000
45.0300 464.0000 1.0000
45.0400 481.0000 1.0000
45.0500 463.0000 1.0000
45.0600 436.0000 1.0000
45.0700 474.0000 1.0000
45.0800 442.0000 1.0000
45.0900 438.0000 1.0000
45.1000 455.0000 1.0000
45.1100 498.0000 1.0000
45.1200 500.0000 1.0000
45.1300 461.0000 1.0000
45.1400 490.0000 1.0000
45.1500 454.0000 1.0000
45.1600 457.0000 1.0000
45.1700 447.0000 1.0000
45.1800 482.0000 1.0000
45.1900 471.0000 1.0000
45.2000 437.0000 1.0000
45.2100 475.0000 1.0000
45.2200 470.0000 1.0000
45.2300 468.0000 1.0000
45.2400 470.0000 1.0000
45.2500 462.0000 1.0000
45.2600 466.0000 1.0000
45.2700 476.0000 1.0000
45.2800 480.0000 1.0000
45.2900 455.0000 1.0000
45.3000 499.0000 1.0000
45.3100 475.0000 1.0000
45.3200 478.0000 1.0000
45.3300 443.0000 1.0000
45.3400 445.0000 1.0000
45.3500 476.0000 1.0000
45.3600 453.0000 1.0000
45.3700 490.0000 1.0000
45.3800 471.0000 1.0000
45.3900 467.0000 1.0000
45.4000 474.0000 1.0000
45.4100 458.0000 1.0000
45.4200 481.0000 1.0000
45.4300 462.0000 1.0000
45.4400 462.0000 1.0000
45.4500 454.0000 1.0000
45.4600 436.0000 1.0000
45.4700 435.0000 1.0000
45.4800 454.0000 1.0000
45.4900 473.0000 1.0000
45.5000 488.0000 1.0000
45.5100 472.0000 1.0000
45.5200 429.0000 1.0000
45.5300 470.0000 1.0000
45.5400 436.0000 1.0000
45.5500 472.0000 1.0000
45.5600 454.0000 1.0000
45.5700 467.0000 1.0000
45.5800 469.0000 1.0000
45.5900 491.0000 1.0000
45.6000 452.0000 1.0000
45.6100 436.0000 1.0000
45.6200 461.0000 1.0000
45.6300 464.0000 1.0000
45.6400 447.0000 1.0000
45.6500 438.0000 1.0000
45.6600 475.0000 1.0000
45.6700 442.0000 1.0000
45.6800 457.0000 1.0000
45.6900 440.0000 1.0000
45.7000 447.0000 1.0000
45.7100 479.0000 1.0000
45.7200 454.0000 1.0000
45.7300 467.0000 1.0000
45.7400 430.0000 1.0000
45.7500 473.0000 1.0000
45.7600 417.0000 1.0000
45.7700 450.0000 1.0000
45.7800 456.0000 1.0000
45.7900 477.0000 1.0000
45.8000 491.0000 1.0000
45.8100 457.0000 1.0000
45.8200 464.0000 1.0000
45.8300 523.0000 1.0000
45.8400 433.0000 1.0000
45.8500 436.0000 1.0000
45.8600 472.0000 1.0000
45.8700 477.0000 1.0000
45.8800 450.0000 1.0000
45.8900 459.0000 1.0000
45.9000 448.0000 1.0000
45.9100 458.0000 1.0000
45.9200 453.0000 1.0000
45.9300 458.0000 1.0000
45.9400 470.0000 1.0000
45.9500 425.0000 1.0000
45.9600 424.0000 1.0000
45.9700 447.0000 1.0000
45.9800 432.0000 1.0000
45.9900 466.0000 1.0000
46.0000 461.0000 1.0000
46.0100 463.0000 1.0000
46.0200 453.0000 1.0000
46.0300 415.0000 1.0000
46.0400 453.0000 1.0000
46.0500 476.0000 1.0000
46.0600 465.0000 1.0000
46.0700 426.0000 1.0000
46.0800 455.0000 1.0000
46.0900 460.0000 1.0000
46.1000 475.0000 1.0000
46.1100 488.0000 1.0000
46.1200 469.0000 1.0000
46.1300 459.0000 1.0000
46.1400 448.0000 1.0000
46.1500 432.0000 1.0000
46.1600 458.0000 1.0000
46.1700 502.0000 1.0000
46.1800 485.0000 1.0000
46.1900 448.0000 1.0000
46.2000 452.0000 1.0000
46.2100 481.0000 1.0000
46.2200 458.0000 1.0000
46.2300 492.0000 1.0000
46.2400 470.0000 1.0000
46.2500 485.0000 1.0000
46.2600 468.0000 1.0000
46.2700 476.0000 1.0000
46.2800 451.0000 1.0000
46.2900 477.0000 1.0000
46.3000 493.0000 1.0000
46.3100 467.0000 1.0000
46.3200 433.0000 1.0000
46.3300 436.0000 1.0000
46.3400 479.0000 1.0000
46.3500 459.0000 1.0000
46.3600 451.0000 1.0000
46.3700 441.0000 1.0000
46.3800 436.0000 1.0000
46.3900 388.0000 1.0000
46.4000 445.0000 1.0000
46.4100 464.0000 1.0000
46.4200 436.0000 1.0000
46.4300 441.0000 1.0000
46.4400 442.0000 1.0000
46.4500 448.0000 1.0000
46.4600 447.0000 1.0000
46.4700 473.0000 1.0000
46.4800 443.0000 1.0000
46.4900 447.0000 1.0000
46.5000 391.0000 1.0000
46.5100 416.0000 1.0000
46.5200 443.0000 1.0000
46.5300 466.0000 1.0000
46.5400 466.0000 1.0000
46.5500 452.0000 1.0000
46.5600 441.0000 1.0000
46.5700 444.0000 1.0000
46.5800 476.0000 1.0000
46.5900 438.0000 1.0000
46.6000 435.0000 1.0000
46.6100 451.0000 1.0000
46.6200 451.0000 1.0000
46.6300 422.0000 1.0000
46.6400 492.0000 1.0000
46.6500 452.0000 1.0000
46.6600 472.0000 1.0000
46.6700 476.0000 1.0000
46.6800 444.0000 1.0000
46.6900 463.0000 1.0000
46.7000 436.0000 1.0000
46.7100 440.0000 1.0000
46.7200 403.0000 1.0000
46.7300 473.0000 1.0000
46.7400 432.0000 1.0000
46.7500 462.0000 1.0000
46.7600 400.0000 1.0000
46.7700 417.0000 1.0000
46.7800 429.0000 1.0000
46.7900 421.0000 1.0000
46.8000 473.0000 1.0000
46.8100 489.0000 1.0000
46.8200 447.0000 1.0000
46.8300 437.0000 1.0000
46.8400 440.0000 1.0000
46.8500 437.0000 1.0000
46.8600 425.0000 1.0000
46.8700 440.0000 1.0000
46.8800 436.0000 1.0000
46.8900 445.0000 1.0000
46.9000 441.0000 1.0000
46.9100 464.0000 1.0000
46.9200 448.0000 1.0000
46.9300 463.0000 1.0000
46.9400 442.0000 1.0000
46.9500 465.0000 1.0000
46.9600 447.0000 1.0000
46.9700 456.0000 1.0000
46.9800 455.0000 1.0000
46.9900 427.0000 1.0000
47.0000 461.0000 1.0000
47.0100 453.0000 1.0000
47.0200 463.0000 1.0000
47.0300 429.0000 1.0000
47.0400 476.0000 1.0000
47.0500 416.0000 1.0000
47.0600 424.0000 1.0000
47.0700 449.0000 1.0000
47.0800 448.0000 1.0000
47.0900 429.0000 1.0000
47.1000 430.0000 1.0000
47.1100 393.0000 1.0000
47.1200 450.0000 1.0000
47.1300 450.0000 1.0000
47.1400 443.0000 1.0000
47.1500 434.0000 1.0000
47.1600 415.0000 1.0000
47.1700 446.0000 1.0000
47.1800 435.0000 1.0000
47.1900 436.0000 1.0000
47.2000 414.0000 1.0000
47.2100 438.0000 1.0000
47.2200 409.0000 1.0000
47.2300 441.0000 1.0000
47.2400 418.0000 1.0000
47.2500 451.0000 1.0000
47.2600 435.0000 1.0000
47.2700 431.0000 1.0000
47.2800 435.0000 1.0000
47.2900 437.0000 1.0000
47.3000 444.0000 1.0000
47.3100 455.0000 1.0000
47.3200 435.0000 1.0000
47.3300 421.0000 1.0000
47.3400 437.0000 1.0000
47.3500 433.0000 1.0000
47.3600 426.0000 1.0000
47.3700 448.0000 1.0000
47.3800 443.0000 1.0000
47.3900 457.0000 1.0000
47.4000 451.0000 1.0000
47.4100 464.0000 1.0000
47.4200 457.0000 1.0000
47.4300 432.0000 1.0000
47.4400 438.0000 1.0000
47.4500 462.0000 1.0000
47.4600 430.0000 1.0000
47.4700 422.0000 1.0000
47.4800 397.0000 1.0000
47.4900 399.0000 1.0000
47.5000 438.0000 1.0000
47.5100 439.0000 1.0000
47.5200 448.0000 1.0000
47.5300 424.0000 1.0000
47.5400 413.0000 1.0000
47.5500 433.0000 1.0000
47.5600 458.0000 1.0000
47.5700 462.0000 1.0000
47.5800 428.0000 1.0000
47.5900 438.0000 1.0000
47.6000 454.0000 1.0000
47.6100 426.0000 1.0000
47.6200 432.0000 1.0000
47.6300 425.0000 1.0000
47.6400 435.0000 1.0000
47.6500 454.0000 1.0000
47.6600 496.0000 1.0000
47.6700 456.0000 1.0000
47.6800 429.0000 1.0000
47.6900 436.0000 1.0000
47.7000 466.0000 1.0000
47.7100 494.0000 1.0000
47.7200 433.0000 1.0000
47.7300 433.0000 1.0000
47.7400 436.0000 1.0000
47.7500 421.0000 1.0000
47.7600 465.0000 1.0000
47.7700 434.0000 1.0000
47.7800 399.0000 1.0000
47.7900 446.0000 1.0000
47.8000 406.0000 1.0000
47.8100 412.0000 1.0000
47.8200 431.0000 1.0000
47.8300 452.0000 1.0000
47.8400 434.0000 1.0000
47.8500 439.0000 1.0000
47.8600 438.0000 1.0000
47.8700 411.0000 1.0000
47.8800 437.0000 1.0000
47.8900 398.0000 1.0000
47.9000 412.0000 1.0000
47.9100 442.0000 1.0000
47.9200 426.0000 1.0000
47.9300 407.0000 1.0000
47.9400 425.0000 1.0000
47.9500 437.0000 1.0000
47.9600 448.0000 1.0000
47.9700 443.0000 1.0000
47.9800 424.0000 1.0000
47.9900 438.0000 1.0000
48.0000 435.0000 1.0000
48.0100 439.0000 1.0000
48.0200 432.0000 1.0000
48.0300 432.0000 1.0000
48.0400 435.0000 1.0000
48.0500 420.0000 1.0000
48.0600 431.0000 1.0000
48.0700 416.0000 1.0000
48.0800 411.0000 1.0000
48.0900 418.0000 1.0000
48.1000 441.0000 1.0000
48.1100 422.0000 1.0000
48.1200 452.0000 1.0000
48.1300 432.0000 1.0000
48.1400 407.0000 1.0000
48.1500 430.0000 1.0000
48.1600 423.0000 1.0000
48.1700 427.0000 1.0000
48.1800 438.0000 1.0000
48.1900 426.0000 1.0000
48.2000 431.0000 1.0000
48.2100 426.0000 1.0000
48.2200 405.0000 1.0000
48.2300 387.0000 1.0000
48.2400 410.0000 1.0000
48.2500 386.0000 1.0000
48.2600 419.0000 1.0000
48.2700 413.0000 1.0000
48.2800 387.0000 1.0000
48.2900 438.0000 1.0000
48.3000 418.0000 1.0000
48.3100 425.0000 1.0000
48.3200 434.0000 1.0000
48.3300 453.0000 1.0000
48.3400 446.0000 1.0000
48.3500 418.0000 1.0000
48.3600 422.0000 1.0000
48.3700 442.0000 1.0000
48.3800 413.0000 1.0000
48.3900 412.0000 1.0000
48.4000 417.0000 1.0000
48.4100 438.0000 1.0000
48.4200 416.0000 1.0000
48.4300 395.0000 1.0000
48.4400 440.0000 1.0000
48.4500 435.0000 1.0000
48.4600 430.0000 1.0000
48.4700 443.0000 1.0000
48.4800 428.0000 1.0000
48.4900 428.0000 1.0000
48.5000 411.0000 1.0000
48.5100 417.0000 1.0000
48.5200 402.0000 1.0000
48.5300 448.0000 1.0000
48.5400 434.0000 1.0000
48.5500 444.0000 1.0000
48.5600 478.0000 1.0000
48.5700 444.0000 1.0000
48.5800 424.0000 1.0000
48.5900 444.0000 1.0000
48.6000 436.0000 1.0000
48.6100 457.0000 1.0000
48.6200 448.0000 1.0000
48.6300 400.0000 1.0000
48.6400 410.0000 1.0000
48.6500 430.0000 1.0000
48.6600 438.0000 1.0000
48.6700 435.0000 1.0000
48.6800 415.0000 1.0000
48.6900 415.0000 1.0000
48.7000 434.0000 1.0000
48.7100 448.0000 1.0000
48.7200 462.0000 1.0000
48.7300 461.0000 1.0000
48.7400 428.0000 1.0000
48.7500 401.0000 1.0000
48.7600 428.0000 1.0000
48.7700 427.0000 1.0000
48.7800 420.0000 1.0000
48.7900 427.0000 1.0000
48.8000 454.0000 1.0000
48.8100 400.0000 1.0000
48.8200 427.0000 1.0000
48.8300 429.0000 1.0000
48.8400 419.0000 1.0000
48.8500 423.0000 1.0000
48.8600 421.0000 1.0000
48.8700 489.0000 1.0000
48.8800 434.0000 1.0000
48.8900 444.0000 1.0000
48.9000 426.0000 1.0000
48.9100 397.0000 1.0000
48.9200 440.0000 1.0000
48.9300 444.0000 1.0000
48.9400 433.0000 1.0000
48.9500 434.0000 1.0000
48.9600 404.0000 1.0000
48.9700 416.0000 1.0000
48.9800 421.0000 1.0000
48.9900 429.0000 1.0000
49.0000 431.0000 1.0000
49.0100 421.0000 1.0000
49.0200 407.0000 1.0000
49.0300 456.0000 1.0000
49.0400 422.0000 1.0000
49.0500 423.0000 1.0000
49.0600 452.0000 1.0000
49.0700 421.0000 1.0000
49.0800 441.0000 1.0000
49.0900 430.0000 1.0000
49.1000 431.0000 1.0000
49.1100 410.0000 1.0000
49.1200 421.0000 1.0000
49.1300 441.0000 1.0000
49.1400 403.0000 1.0000
49.1500 408.0000 1.0000
49.1600 418.0000 1.0000
49.1700 421.0000 1.0000
49.1800 477.0000 1.0000
49.1900 473.0000 1.0000
49.2000 435.0000 1.0000
49.2100 455.0000 1.0000
49.2200 441.0000 1.0000
49.2300 455.0000 1.0000
49.2400 453.0000 1.0000
49.2500 457.0000 1.0000
49.2600 433.0000 1.0000
49.2700 451.0000 1.0000
49.2800 453.0000 1.0000
49.2900 453.0000 1.0000
49.3000 429.0000 1.0000
49.3100 473.0000 1.0000
49.3200 473.0000 1.0000
49.3300 523.0000 1.0000
49.3400 478.0000 1.0000
49.3500 526.0000 1.0000
49.3600 486.0000 1.0000
49.3700 507.0000 1.0000
49.3800 490.0000 1.0000
49.3900 492.0000 1.0000
49.4000 533.0000 1.0000
49.4100 538.0000 1.0000
49.4200 514.0000 1.0000
49.4300 511.0000 1.0000
49.4400 513.0000 1.0000
49.4500 521.0000 1.0000
49.4600 496.0000 1.0000
49.4700 498.0000 1.0000
49.4800 530.0000 1.0000
49.4900 511.0000 1.0000
49.5000 533.0000 1.0000
49.5100 461.0000 1.0000
49.5200 466.0000 1.0000
49.5300 482.0000 1.0000
49.5400 522.0000 1.0000
49.5500 496.0000 1.0000
49.5600 468.0000 1.0000
49.5700 465.0000 1.0000
49.5800 461.0000 1.0000
49.5900 493.0000 1.0000
49.6000 479.0000 1.0000
49.6100 491.0000 1.0000
49.6200 487.0000 1.0000
49.6300 479.0000 1.0000
49.6400 464.0000 1.0000
49.6500 458.0000 1.0000
49.6600 440.0000 1.0000
49.6700 437.0000 1.0000
49.6800 429.0000 1.0000
49.6900 484.0000 1.0000
49.7000 463.0000 1.0000
49.7100 430.0000 1.0000
49.7200 452.0000 1.0000
49.7300 425.0000 1.0000
49.7400 439.0000 1.0000
49.7500 428.0000 1.0000
49.7600 438.0000 1.0000
49.7700 399.0000 1.0000
49.7800 399.0000 1.0000
49.7900 422.0000 1.0000
49.8000 408.0000 1.0000
49.8100 426.0000 1.0000
49.8200 437.0000 1.0000
49.8300 427.0000 1.0000
49.8400 433.0000 1.0000
49.8500 463.0000 1.0000
49.8600 434.0000 1.0000
49.8700 398.0000 1.0000
49.8800 421.0000 1.0000
49.8900 438.0000 1.0000
49.9000 422.0000 1.0000
49.9100 439.0000 1.0000
49.9200 428.0000 1.0000
49.9300 443.0000 1.0000
49.9400 489.0000 1.0000
49.9500 416.0000 1.0000
49.9600 433.0000 1.0000
49.9700 454.0000 1.0000
49.9800 448.0000 1.0000
49.9900 469.0000 1.0000
50.0000 421.0000 1.0000
50.0100 433.0000 1.0000
50.0200 454.0000 1.0000
50.0300 460.0000 1.0000
50.0400 432.0000 1.0000
50.0500 435.0000 1.0000
50.0600 450.0000 1.0000
50.0700 431.0000 1.0000
50.0800 426.0000 1.0000
50.0900 438.0000 1.0000
50.1000 437.0000 1.0000
50.1100 447.0000 1.0000
50.1200 449.0000 1.0000
50.1300 433.0000 1.0000
50.1400 414.0000 1.0000
50.1500 394.0000 1.0000
50.1600 415.0000 1.0000
50.1700 448.0000 1.0000
50.1800 399.0000 1.0000
50.1900 451.0000 1.0000
50.2000 470.0000 1.0000
50.2100 410.0000 1.0000
50.2200 396.0000 1.0000
50.2300 431.0000 1.0000
50.2400 413.0000 1.0000
50.2500 427.0000 1.0000
50.2600 422.0000 1.0000
50.2700 418.0000 1.0000
50.2800 454.0000 1.0000
50.2900 423.0000 1.0000
50.3000 469.0000 1.0000
50.3100 451.0000 1.0000
50.3200 405.0000 1.0000
50.3300 421.0000 1.0000
50.3400 430.0000 1.0000
50.3500 440.0000 1.0000
50.3600 439.0000 1.0000
50.3700 437.0000 1.0000
50.3800 453.0000 1.0000
50.3900 447.0000 1.0000
50.4000 431.0000 1.0000
50.4100 433.0000 1.0000
50.4200 422.0000 1.0000
50.4300 452.0000 1.0000
50.4400 453.0000 1.0000
50.4500 438.0000 1.0000
50.4600 448.0000 1.0000
50.4700 451.0000 1.0000
50.4800 445.0000 1.0000
50.4900 421.0000 1.0000
50.5000 440.0000 1.0000
50.5100 420.0000 1.0000
50.5200 440.0000 1.0000
50.5300 429.0000 1.0000
50.5400 425.0000 1.0000
50.5500 450.0000 1.0000
50.5600 462.0000 1.0000
50.5700 442.0000 1.0000
50.5800 421.0000 1.0000
50.5900 421.0000 1.0000
50.6000 433.0000 1.0000
50.6100 403.0000 1.0000
50.6200 452.0000 1.0000
50.6300 428.0000 1.0000
50.6400 438.0000 1.0000
50.6500 392.0000 1.0000
50.6600 412.0000 1.0000
50.6700 437.0000 1.0000
50.6800 447.0000 1.0000
50.6900 427.0000 1.0000
50.7000 454.0000 1.0000
50.7100 433.0000 1.0000
50.7200 448.0000 1.0000
50.7300 409.0000 1.0000
50.7400 444.0000 1.0000
50.7500 472.0000 1.0000
50.7600 506.0000 1.0000
50.7700 430.0000 1.0000
50.7800 460.0000 1.0000
50.7900 463.0000 1.0000
50.8000 409.0000 1.0000
50.8100 462.0000 1.0000
50.8200 438.0000 1.0000
50.8300 452.0000 1.0000
50.8400 451.0000 1.0000
50.8500 468.0000 1.0000
50.8600 448.0000 1.0000
50.8700 433.0000 1.0000
50.8800 445.0000 1.0000
50.8900 458.0000 1.0000
50.9000 446.0000 1.0000
50.9100 447.0000 1.0000
50.9200 468.0000 1.0000
50.9300 469.0000 1.0000
50.9400 508.0000 1.0000
50.9500 469.0000 1.0000
50.9600 466.0000 1.0000
50.9700 470.0000 1.0000
50.9800 457.0000 1.0000
50.9900 480.0000 1.0000
51.0000 484.0000 1.0000
51.0100 449.0000 1.0000
51.0200 447.0000 1.0000
51.0300 521.0000 1.0000
51.0400 496.0000 1.0000
51.0500 495.0000 1.0000
51.0600 505.0000 1.0000
51.0700 494.0000 1.0000
51.0800 519.0000 1.0000
51.0900 530.0000 1.0000
51.1000 503.0000 1.0000
51.1100 512.0000 1.0000
51.1200 560.0000 1.0000
51.1300 548.0000 1.0000
51.1400 545.0000 1.0000
51.1500 570.0000 1.0000
51.1600 564.0000 1.0000
51.1700 590.0000 1.0000
51.1800 610.0000 1.0000
51.1900 616.0000 1.0000
51.2000 637.0000 1.0000
51.2100 651.0000 1.0000
51.2200 705.0000 1.0000
51.2300 713.0000 1.0000
51.2400 729.0000 1.0000
51.2500 750.0000 1.0000
51.2600 776.0000 1.0000
51.2700 826.0000 1.0000
51.2800 912.0000 1.0000
51.2900 925.0000 1.0000
51.3000 917.0000 1.0000
51.3100 967.0000 1.0000
51.3200 1089.0000 1.0000
51.3300 1221.0000 1.0000
51.3400 1205.0000 1.0000
51.3500 1307.0000 1.0000
51.3600 1387.0000 1.0000
51.3700 1467.0000 1.0000
51.3800 1517.0000 1.0000
51.3900 1641.0000 1.0000
51.4000 1795.0000 1.0000
51.4100 2017.0000 1.0000
51.4200 2186.0000 1.0000
51.4300 2317.0000 1.0000
51.4400 2507.0000 1.0000
51.4500 2604.0000 1.0000
51.4600 2669.0000 1.0000
51.4700 2910.0000 1.0000
51.4800 2907.0000 1.0000
51.4900 3093.0000 1.0000
51.5000 2990.0000 1.0000
51.5100 2971.0000 1.0000
51.5200 3019.0000 1.0000
51.5300 2984.0000 1.0000
51.5400 2892.0000 1.0000
51.5500 2816.0000 1.0000
51.5600 2726.0000 1.0000
51.5700 2594.0000 1.0000
51.5800 2530.0000 1.0000
51.5900 2453.0000 1.0000
51.6000 2377.0000 1.0000
51.6100 2388.0000 1.0000
51.6200 2295.0000 1.0000
51.6300 2197.0000 1.0000
51.6400 2113.0000 1.0000
51.6500 2084.0000 1.0000
51.6600 1925.0000 1.0000
51.6700 1842.0000 1.0000
51.6800 1774.0000 1.0000
51.6900 1585.0000 1.0000
51.7000 1528.0000 1.0000
51.7100 1400.0000 1.0000
51.7200 1347.0000 1.0000
51.7300 1234.0000 1.0000
51.7400 1166.0000 1.0000
51.7500 1084.0000 1.0000
51.7600 971.0000 1.0000
51.7700 946.0000 1.0000
51.7800 900.0000 1.0000
51.7900 863.0000 1.0000
51.8000 818.0000 1.0000
51.8100 800.0000 1.0000
51.8200 745.0000 1.0000
51.8300 757.0000 1.0000
51.8400 713.0000 1.0000
51.8500 661.0000 1.0000
51.8600 642.0000 1.0000
51.8700 644.0000 1.0000
51.8800 658.0000 1.0000
51.8900 658.0000 1.0000
51.9000 603.0000 1.0000
51.9100 590.0000 1.0000
51.9200 552.0000 1.0000
51.9300 599.0000 1.0000
51.9400 546.0000 1.0000
51.9500 531.0000 1.0000
51.9600 551.0000 1.0000
51.9700 559.0000 1.0000
51.9800 540.0000 1.0000
51.9900 519.0000 1.0000
52.0000 527.0000 1.0000
52.0100 508.0000 1.0000
52.0200 543.0000 1.0000
52.0300 477.0000 1.0000
52.0400 482.0000 1.0000
52.0500 514.0000 1.0000
52.0600 472.0000 1.0000
52.0700 510.0000 1.0000
52.0800 497.0000 1.0000
52.0900 480.0000 1.0000
52.1000 497.0000 1.0000
52.1100 460.0000 1.0000
52.1200 453.0000 1.0000
52.1300 480.0000 1.0000
52.1400 482.0000 1.0000
52.1500 462.0000 1.0000
52.1600 465.0000 1.0000
52.1700 453.0000 1.0000
52.1800 479.0000 1.0000
52.1900 471.0000 1.0000
52.2000 475.0000 1.0000
52.2100 471.0000 1.0000
52.2200 441.0000 1.0000
52.2300 421.0000 1.0000
52.2400 478.0000 1.0000
52.2500 457.0000 1.0000
52.2600 466.0000 1.0000
52.2700 480.0000 1.0000
52.2800 471.0000 1.0000
52.2900 434.0000 1.0000
52.3000 422.0000 1.0000
52.3100 450.0000 1.0000
52.3200 440.0000 1.0000
52.3300 449.0000 1.0000
52.3400 436.0000 1.0000
52.3500 487.0000 1.0000
52.3600 431.0000 1.0000
52.3700 457.0000 1.0000
52.3800 435.0000 1.0000
52.3900 445.0000 1.0000
52.4000 410.0000 1.0000
52.4100 430.0000 1.0000
52.4200 443.0000 1.0000
52.4300 421.0000 1.0000
52.4400 445.0000 1.0000
52.4500 460.0000 1.0000
52.4600 462.0000 1.0000
52.4700 411.0000 1.0000
52.4800 424.0000 1.0000
52.4900 436.0000 1.0000
52.5000 428.0000 1.0000
52.5100 386.0000 1.0000
52.5200 415.0000 1.0000
52.5300 442.0000 1.0000
52.5400 443.0000 1.0000
52.5500 426.0000 1.0000
52.5600 386.0000 1.0000
52.5700 432.0000 1.0000
52.5800 470.0000 1.0000
52.5900 423.0000 1.0000
52.6000 403.0000 1.0000
52.6100 446.0000 1.0000
52.6200 425.0000 1.0000
52.6300 452.0000 1.0000
52.6400 422.0000 1.0000
52.6500 464.0000 1.0000
52.6600 416.0000 1.0000
52.6700 384.0000 1.0000
52.6800 433.0000 1.0000
52.6900 429.0000 1.0000
52.7000 443.0000 1.0000
52.7100 426.0000 1.0000
52.7200 425.0000 1.0000
52.7300 417.0000 1.0000
52.7400 409.0000 1.0000
52.7500 430.0000 1.0000
52.7600 435.0000 1.0000
52.7700 423.0000 1.0000
52.7800 400.0000 1.0000
52.7900 419.0000 1.0000
52.8000 424.0000 1.0000
52.8100 395.0000 1.0000
52.8200 445.0000 1.0000
52.8300 452.0000 1.0000
52.8400 431.0000 1.0000
52.8500 407.0000 1.0000
52.8600 368.0000 1.0000
52.8700 421.0000 1.0000
52.8800 425.0000 1.0000
52.8900 448.0000 1.0000
52.9000 418.0000 1.0000
52.9100 435.0000 1.0000
52.9200 409.0000 1.0000
52.9300 406.0000 1.0000
52.9400 406.0000 1.0000
52.9500 442.0000 1.0000
52.9600 440.0000 1.0000
52.9700 459.0000 1.0000
52.9800 425.0000 1.0000
52.9900 419.0000 1.0000
53.0000 419.0000 1.0000
53.0100 440.0000 1.0000
53.0200 401.0000 1.0000
53.0300 379.0000 1.0000
53.0400 437.0000 1.0000
53.0500 433.0000 1.0000
53.0600 433.0000 1.0000
53.0700 401.0000 1.0000
53.0800 411.0000 1.0000
53.0900 442.0000 1.0000
53.1000 424.0000 1.0000
53.1100 434.0000 1.0000
53.1200 413.0000 1.0000
53.1300 387.0000 1.0000
53.1400 415.0000 1.0000
53.1500 409.0000 1.0000
53.1600 442.0000 1.0000
53.1700 447.0000 1.0000
53.1800 406.0000 1.0000
53.1900 425.0000 1.0000
53.2000 415.0000 1.0000
53.2100 412.0000 1.0000
53.2200 405.0000 1.0000
53.2300 405.0000 1.0000
53.2400 391.0000 1.0000
53.2500 448.0000 1.0000
53.2600 403.0000 1.0000
53.2700 397.0000 1.0000
53.2800 413.0000 1.0000
53.2900 414.0000 1.0000
53.3000 413.0000 1.0000
53.3100 434.0000 1.0000
53.3200 402.0000 1.0000
53.3300 441.0000 1.0000
53.3400 408.0000 1.0000
53.3500 433.0000 1.0000
53.3600 434.0000 1.0000
53.3700 413.0000 1.0000
53.3800 425.0000 1.0000
53.3900 430.0000 1.0000
53.4000 424.0000 1.0000
53.4100 435.0000 1.0000
53.4200 426.0000 1.0000
53.4300 424.0000 1.0000
53.4400 398.0000 1.0000
53.4500 406.0000 1.0000
53.4600 419.0000 1.0000
53.4700 411.0000 1.0000
53.4800 448.0000 1.0000
53.4900 432.0000 1.0000
53.5000 421.0000 1.0000
53.5100 426.0000 1.0000
53.5200 410.0000 1.0000
53.5300 409.0000 1.0000
53.5400 444.0000 1.0000
53.5500 399.0000 1.0000
53.5600 397.0000 1.0000
53.5700 419.0000 1.0000
53.5800 406.0000 1.0000
53.5900 421.0000 1.0000
53.6000 439.0000 1.0000
53.6100 401.0000 1.0000
53.6200 432.0000 1.0000
53.6300 413.0000 1.0000
53.6400 399.0000 1.0000
53.6500 410.0000 1.0000
53.6600 443.0000 1.0000
53.6700 401.0000 1.0000
53.6800 384.0000 1.0000
53.6900 413.0000 1.0000
53.7000 436.0000 1.0000
53.7100 429.0000 1.0000
53.7200 448.0000 1.0000
53.7300 449.0000 1.0000
53.7400 443.0000 1.0000
53.7500 433.0000 1.0000
53.7600 405.0000 1.0000
53.7700 426.0000 1.0000
53.7800 414.0000 1.0000
53.7900 449.0000 1.0000
53.8000 427.0000 1.0000
53.8100 444.0000 1.0000
53.8200 422.0000 1.0000
53.8300 428.0000 1.0000
53.8400 438.0000 1.0000
53.8500 451.0000 1.0000
53.8600 442.0000 1.0000
53.8700 434.0000 1.0000
53.8800 435.0000 1.0000
53.8900 433.0000 1.0000
53.9000 458.0000 1.0000
53.9100 476.0000 1.0000
53.9200 469.0000 1.0000
53.9300 477.0000 1.0000
53.9400 441.0000 1.0000
53.9500 466.0000 1.0000
53.9600 489.0000 1.0000
53.9700 463.0000 1.0000
53.9800 524.0000 1.0000
53.9900 494.0000 1.0000
54.0000 510.0000 1.0000
54.0100 514.0000 1.0000
54.0200 539.0000 1.0000
54.0300 512.0000 1.0000
54.0400 536.0000 1.0000
54.0500 530.0000 1.0000
54.0600 540.0000 1.0000
54.0700 560.0000 1.0000
54.0800 497.0000 1.0000
54.0900 506.0000 1.0000
54.1000 510.0000 1.0000
54.1100 517.0000 1.0000
54.1200 468.0000 1.0000
54.1300 495.0000 1.0000
54.1400 485.0000 1.0000
54.1500 481.0000 1.0000
54.1600 472.0000 1.0000
54.1700 477.0000 1.0000
54.1800 466.0000 1.0000
54.1900 504.0000 1.0000
54.2000 465.0000 1.0000
54.2100 496.0000 1.0000
54.2200 464.0000 1.0000
54.2300 495.0000 1.0000
54.2400 466.0000 1.0000
54.2500 508.0000 1.0000
54.2600 484.0000 1.0000
54.2700 476.0000 1.0000
54.2800 459.0000 1.0000
54.2900 500.0000 1.0000
54.3000 467.0000 1.0000
54.3100 481.0000 1.0000
54.3200 491.0000 1.0000
54.3300 518.0000 1.0000
54.3400 496.0000 1.0000
54.3500 493.0000 1.0000
54.3600 489.0000 1.0000
54.3700 515.0000 1.0000
54.3800 516.0000 1.0000
54.3900 539.0000 1.0000
54.4000 544.0000 1.0000
54.4100 542.0000 1.0000
54.4200 564.0000 1.0000
54.4300 599.0000 1.0000
54.4400 564.0000 1.0000
54.4500 600.0000 1.0000
54.4600 628.0000 1.0000
54.4700 631.0000 1.0000
54.4800 608.0000 1.0000
54.4900 652.0000 1.0000
54.5000 634.0000 1.0000
54.5100 607.0000 1.0000
54.5200 650.0000 1.0000
54.5300 654.0000 1.0000
54.5400 665.0000 1.0000
54.5500 658.0000 1.0000
54.5600 623.0000 1.0000
54.5700 645.0000 1.0000
54.5800 614.0000 1.0000
54.5900 673.0000 1.0000
54.6000 607.0000 1.0000
54.6100 605.0000 1.0000
54.6200 606.0000 1.0000
54.6300 619.0000 1.0000
54.6400 619.0000 1.0000
54.6500 655.0000 1.0000
54.6600 596.0000 1.0000
54.6700 577.0000 1.0000
54.6800 570.0000 1.0000
54.6900 549.0000 1.0000
54.7000 552.0000 1.0000
54.7100 513.0000 1.0000
54.7200 528.0000 1.0000
54.7300 541.0000 1.0000
54.7400 529.0000 1.0000
54.7500 566.0000 1.0000
54.7600 522.0000 1.0000
54.7700 489.0000 1.0000
54.7800 495.0000 1.0000
54.7900 476.0000 1.0000
54.8000 482.0000 1.0000
54.8100 457.0000 1.0000
54.8200 461.0000 1.0000
54.8300 464.0000 1.0000
54.8400 411.0000 1.0000
54.8500 449.0000 1.0000
54.8600 470.0000 1.0000
54.8700 447.0000 1.0000
54.8800 453.0000 1.0000
54.8900 457.0000 1.0000
54.9000 452.0000 1.0000
54.9100 443.0000 1.0000
54.9200 457.0000 1.0000
54.9300 451.0000 1.0000
54.9400 426.0000 1.0000
54.9500 427.0000 1.0000
54.9600 459.0000 1.0000
54.9700 438.0000 1.0000
54.9800 420.0000 1.0000
54.9900 427.0000 1.0000
55.0000 441.0000 1.0000
55.0100 445.0000 1.0000
55.0200 445.0000 1.0000
55.0300 460.0000 1.0000
55.0400 433.0000 1.0000
55.0500 377.0000 1.0000
55.0600 435.0000 1.0000
55.0700 424.0000 1.0000
55.0800 416.0000 1.0000
55.0900 424.0000 1.0000
55.1000 408.0000 1.0000
55.1100 401.0000 1.0000
55.1200 429.0000 1.0000
55.1300 467.0000 1.0000
55.1400 446.0000 1.0000
55.1500 443.0000 1.0000
55.1600 412.0000 1.0000
55.1700 419.0000 1.0000
55.1800 397.0000 1.0000
55.1900 397.0000 1.0000
55.2000 391.0000 1.0000
55.2100 419.0000 1.0000
55.2200 400.0000 1.0000
55.2300 393.0000 1.0000
55.2400 398.0000 1.0000
55.2500 414.0000 1.0000
55.2600 433.0000 1.0000
55.2700 396.0000 1.0000
55.2800 403.0000 1.0000
55.2900 429.0000 1.0000
55.3000 409.0000 1.0000
55.3100 421.0000 1.0000
55.3200 389.0000 1.0000
55.3300 413.0000 1.0000
55.3400 443.0000 1.0000
55.3500 414.0000 1.0000
55.3600 399.0000 1.0000
55.3700 382.0000 1.0000
55.3800 389.0000 1.0000
55.3900 399.0000 1.0000
55.4000 407.0000 1.0000
55.4100 411.0000 1.0000
55.4200 411.0000 1.0000
55.4300 402.0000 1.0000
55.4400 410.0000 1.0000
55.4500 402.0000 1.0000
55.4600 416.0000 1.0000
55.4700 427.0000 1.0000
55.4800 437.0000 1.0000
55.4900 412.0000 1.0000
55.5000 410.0000 1.0000
55.5100 399.0000 1.0000
55.5200 384.0000 1.0000
55.5300 387.0000 1.0000
55.5400 415.0000 1.0000
55.5500 438.0000 1.0000
55.5600 390.0000 1.0000
55.5700 382.0000 1.0000
55.5800 366.0000 1.0000
55.5900 405.0000 1.0000
55.6000 414.0000 1.0000
55.6100 416.0000 1.0000
55.6200 375.0000 1.0000
55.6300 426.0000 1.0000
55.6400 393.0000 1.0000
55.6500 423.0000 1.0000
55.6600 427.0000 1.0000
55.6700 388.0000 1.0000
55.6800 404.0000 1.0000
55.6900 397.0000 1.0000
55.7000 368.0000 1.0000
55.7100 412.0000 1.0000
55.7200 434.0000 1.0000
55.7300 441.0000 1.0000
55.7400 402.0000 1.0000
55.7500 385.0000 1.0000
55.7600 404.0000 1.0000
55.7700 406.0000 1.0000
55.7800 409.0000 1.0000
55.7900 389.0000 1.0000
55.8000 416.0000 1.0000
55.8100 413.0000 1.0000
55.8200 410.0000 1.0000
55.8300 403.0000 1.0000
55.8400 393.0000 1.0000
55.8500 434.0000 1.0000
55.8600 368.0000 1.0000
55.8700 364.0000 1.0000
55.8800 376.0000 1.0000
55.8900 410.0000 1.0000
55.9000 395.0000 1.0000
55.9100 369.0000 1.0000
55.9200 402.0000 1.0000
55.9300 412.0000 1.0000
55.9400 402.0000 1.0000
55.9500 380.0000 1.0000
55.9600 416.0000 1.0000
55.9700 386.0000 1.0000
55.9800 376.0000 1.0000
55.9900 413.0000 1.0000
56.0000 402.0000 1.0000
56.0100 355.0000 1.0000
56.0200 407.0000 1.0000
56.0300 404.0000 1.0000
56.0400 406.0000 1.0000
56.0500 383.0000 1.0000
56.0600 380.0000 1.0000
56.0700 393.0000 1.0000
56.0800 420.0000 1.0000
56.0900 394.0000 1.0000
56.1000 408.0000 1.0000
56.1100 409.0000 1.0000
56.1200 402.0000 1.0000
56.1300 382.0000 1.0000
56.1400 355.0000 1.0000
56.1500 387.0000 1.0000
56.1600 355.0000 1.0000
56.1700 342.0000 1.0000
56.1800 382.0000 1.0000
56.1900 363.0000 1.0000
56.2000 396.0000 1.0000
56.2100 400.0000 1.0000
56.2200 417.0000 1.0000
56.2300 403.0000 1.0000
56.2400 393.0000 1.0000
56.2500 369.0000 1.0000
56.2600 385.0000 1.0000
56.2700 389.0000 1.0000
56.2800 396.0000 1.0000
56.2900 421.0000 1.0000
56.3000 378.0000 1.0000
56.3100 396.0000 1.0000
56.3200 390.0000 1.0000
56.3300 376.0000 1.0000
56.3400 400.0000 1.0000
56.3500 384.0000 1.0000
56.3600 408.0000 1.0000
56.3700 356.0000 1.0000
56.3800 404.0000 1.0000
56.3900 399.0000 1.0000
56.4000 389.0000 1.0000
56.4100 396.0000 1.0000
56.4200 384.0000 1.0000
56.4300 411.0000 1.0000
56.4400 423.0000 1.0000
56.4500 393.0000 1.0000
56.4600 416.0000 1.0000
56.4700 404.0000 1.0000
56.4800 428.0000 1.0000
56.4900 388.0000 1.0000
56.5000 434.0000 1.0000
56.5100 396.0000 1.0000
56.5200 393.0000 1.0000
56.5300 406.0000 1.0000
56.5400 381.0000 1.0000
56.5500 371.0000 1.0000
56.5600 394.0000 1.0000
56.5700 362.0000 1.0000
56.5800 380.0000 1.0000
56.5900 431.0000 1.0000
56.6000 424.0000 1.0000
56.6100 379.0000 1.0000
56.6200 422.0000 1.0000
56.6300 403.0000 1.0000
56.6400 405.0000 1.0000
56.6500 406.0000 1.0000
56.6600 408.0000 1.0000
56.6700 413.0000 1.0000
56.6800 372.0000 1.0000
56.6900 388.0000 1.0000
56.7000 376.0000 1.0000
56.7100 390.0000 1.0000
56.7200 388.0000 1.0000
56.7300 383.0000 1.0000
56.7400 377.0000 1.0000
56.7500 388.0000 1.0000
56.7600 387.0000 1.0000
56.7700 400.0000 1.0000
56.7800 381.0000 1.0000
56.7900 383.0000 1.0000
56.8000 391.0000 1.0000
56.8100 393.0000 1.0000
56.8200 392.0000 1.0000
56.8300 386.0000 1.0000
56.8400 398.0000 1.0000
56.8500 410.0000 1.0000
56.8600 399.0000 1.0000
56.8700 402.0000 1.0000
56.8800 418.0000 1.0000
56.8900 396.0000 1.0000
56.9000 399.0000 1.0000
56.9100 383.0000 1.0000
56.9200 350.0000 1.0000
56.9300 384.0000 1.0000
56.9400 412.0000 1.0000
56.9500 382.0000 1.0000
56.9600 421.0000 1.0000
56.9700 377.0000 1.0000
56.9800 383.0000 1.0000
56.9900 389.0000 1.0000
57.0000 403.0000 1.0000
57.0100 423.0000 1.0000
57.0200 391.0000 1.0000
57.0300 408.0000 1.0000
57.0400 396.0000 1.0000
57.0500 355.0000 1.0000
57.0600 394.0000 1.0000
57.0700 414.0000 1.0000
57.0800 375.0000 1.0000
57.0900 373.0000 1.0000
57.1000 418.0000 1.0000
57.1100 391.0000 1.0000
57.1200 398.0000 1.0000
57.1300 391.0000 1.0000
57.1400 399.0000 1.0000
57.1500 400.0000 1.0000
57.1600 385.0000 1.0000
57.1700 425.0000 1.0000
57.1800 425.0000 1.0000
57.1900 404.0000 1.0000
57.2000 362.0000 1.0000
57.2100 408.0000 1.0000
57.2200 392.0000 1.0000
57.2300 399.0000 1.0000
57.2400 384.0000 1.0000
57.2500 395.0000 1.0000
57.2600 398.0000 1.0000
57.2700 420.0000 1.0000
57.2800 392.0000 1.0000
57.2900 407.0000 1.0000
57.3000 409.0000 1.0000
57.3100 399.0000 1.0000
57.3200 385.0000 1.0000
57.3300 366.0000 1.0000
57.3400 395.0000 1.0000
57.3500 390.0000 1.0000
57.3600 395.0000 1.0000
57.3700 417.0000 1.0000
57.3800 425.0000 1.0000
57.3900 406.0000 1.0000
57.4000 401.0000 1.0000
57.4100 398.0000 1.0000
57.4200 398.0000 1.0000
57.4300 420.0000 1.0000
57.4400 406.0000 1.0000
57.4500 406.0000 1.0000
57.4600 414.0000 1.0000
57.4700 430.0000 1.0000
57.4800 399.0000 1.0000
57.4900 406.0000 1.0000
57.5000 384.0000 1.0000
57.5100 408.0000 1.0000
57.5200 391.0000 1.0000
57.5300 411.0000 1.0000
57.5400 386.0000 1.0000
57.5500 400.0000 1.0000
57.5600 443.0000 1.0000
57.5700 433.0000 1.0000
57.5800 411.0000 1.0000
57.5900 438.0000 1.0000
57.6000 449.0000 1.0000
57.6100 416.0000 1.0000
57.6200 403.0000 1.0000
57.6300 449.0000 1.0000
57.6400 421.0000 1.0000
57.6500 420.0000 1.0000
57.6600 428.0000 1.0000
57.6700 414.0000 1.0000
57.6800 432.0000 1.0000
57.6900 416.0000 1.0000
57.7000 417.0000 1.0000
57.7100 429.0000 1.0000
57.7200 396.0000 1.0000
57.7300 413.0000 1.0000
57.7400 389.0000 1.0000
57.7500 380.0000 1.0000
57.7600 436.0000 1.0000
57.7700 408.0000 1.0000
57.7800 389.0000 1.0000
57.7900 419.0000 1.0000
57.8000 397.0000 1.0000
57.8100 419.0000 1.0000
57.8200 405.0000 1.0000
57.8300 374.0000 1.0000
57.8400 387.0000 1.0000
57.8500 409.0000 1.0000
57.8600 377.0000 1.0000
57.8700 401.0000 1.0000
57.8800 404.0000 1.0000
57.8900 411.0000 1.0000
57.9000 442.0000 1.0000
57.9100 381.0000 1.0000
57.9200 391.0000 1.0000
57.9300 416.0000 1.0000
57.9400 439.0000 1.0000
57.9500 387.0000 1.0000
57.9600 402.0000 1.0000
57.9700 392.0000 1.0000
57.9800 417.0000 1.0000
57.9900 398.0000 1.0000
58.0000 389.0000 1.0000
58.0100 395.0000 1.0000
58.0200 398.0000 1.0000
58.0300 407.0000 1.0000
58.0400 390.0000 1.0000
58.0500 409.0000 1.0000
58.0600 394.0000 1.0000
58.0700 386.0000 1.0000
58.0800 382.0000 1.0000
58.0900 381.0000 1.0000
58.1000 376.0000 1.0000
58.1100 395.0000 1.0000
58.1200 400.0000 1.0000
58.1300 401.0000 1.0000
58.1400 431.0000 1.0000
58.1500 381.0000 1.0000
58.1600 366.0000 1.0000
58.1700 371.0000 1.0000
58.1800 384.0000 1.0000
58.1900 389.0000 1.0000
58.2000 389.0000 1.0000
58.2100 386.0000 1.0000
58.2200 424.0000 1.0000
58.2300 443.0000 1.0000
58.2400 463.0000 1.0000
58.2500 409.0000 1.0000
58.2600 386.0000 1.0000
58.2700 381.0000 1.0000
58.2800 382.0000 1.0000
58.2900 385.0000 1.0000
58.3000 396.0000 1.0000
58.3100 392.0000 1.0000
58.3200 382.0000 1.0000
58.3300 390.0000 1.0000
58.3400 380.0000 1.0000
58.3500 392.0000 1.0000
58.3600 371.0000 1.0000
58.3700 384.0000 1.0000
58.3800 401.0000 1.0000
58.3900 366.0000 1.0000
58.4000 388.0000 1.0000
58.4100 391.0000 1.0000
58.4200 385.0000 1.0000
58.4300 379.0000 1.0000
58.4400 382.0000 1.0000
58.4500 396.0000 1.0000
58.4600 411.0000 1.0000
58.4700 416.0000 1.0000
58.4800 388.0000 1.0000
58.4900 397.0000 1.0000
58.5000 387.0000 1.0000
58.5100 398.0000 1.0000
58.5200 390.0000 1.0000
58.5300 365.0000 1.0000
58.5400 377.0000 1.0000
58.5500 391.0000 1.0000
58.5600 379.0000 1.0000
58.5700 395.0000 1.0000
58.5800 386.0000 1.0000
58.5900 401.0000 1.0000
58.6000 374.0000 1.0000
58.6100 393.0000 1.0000
58.6200 372.0000 1.0000
58.6300 400.0000 1.0000
58.6400 397.0000 1.0000
58.6500 394.0000 1.0000
58.6600 384.0000 1.0000
58.6700 408.0000 1.0000
58.6800 389.0000 1.0000
58.6900 404.0000 1.0000
58.7000 397.0000 1.0000
58.7100 395.0000 1.0000
58.7200 398.0000 1.0000
58.7300 405.0000 1.0000
58.7400 409.0000 1.0000
58.7500 411.0000 1.0000
58.7600 367.0000 1.0000
58.7700 414.0000 1.0000
58.7800 380.0000 1.0000
58.7900 356.0000 1.0000
58.8000 364.0000 1.0000
58.8100 411.0000 1.0000
58.8200 403.0000 1.0000
58.8300 404.0000 1.0000
58.8400 388.0000 1.0000
58.8500 404.0000 1.0000
58.8600 387.0000 1.0000
58.8700 366.0000 1.0000
58.8800 419.0000 1.0000
58.8900 384.0000 1.0000
58.9000 423.0000 1.0000
58.9100 404.0000 1.0000
58.9200 374.0000 1.0000
58.9300 385.0000 1.0000
58.9400 393.0000 1.0000
58.9500 390.0000 1.0000
58.9600 405.0000 1.0000
58.9700 391.0000 1.0000
58.9800 388.0000 1.0000
58.9900 395.0000 1.0000
59.0000 395.0000 1.0000
59.0100 400.0000 1.0000
59.0200 395.0000 1.0000
59.0300 396.0000 1.0000
59.0400 396.0000 1.0000
59.0500 397.0000 1.0000
59.0600 387.0000 1.0000
59.0700 377.0000 1.0000
59.0800 374.0000 1.0000
59.0900 369.0000 1.0000
59.1000 380.0000 1.0000
59.1100 369.0000 1.0000
59.1200 377.0000 1.0000
59.1300 360.0000 1.0000
59.1400 387.0000 1.0000
59.1500 407.0000 1.0000
59.1600 394.0000 1.0000
59.1700 405.0000 1.0000
59.1800 389.0000 1.0000
59.1900 393.0000 1.0000
59.2000 399.0000 1.0000
59.2100 416.0000 1.0000
59.2200 391.0000 1.0000
59.2300 379.0000 1.0000
59.2400 374.0000 1.0000
59.2500 381.0000 1.0000
59.2600 403.0000 1.0000
59.2700 428.0000 1.0000
59.2800 377.0000 1.0000
59.2900 374.0000 1.0000
59.3000 364.0000 1.0000
59.3100 379.0000 1.0000
59.3200 377.0000 1.0000
59.3300 374.0000 1.0000
59.3400 420.0000 1.0000
59.3500 411.0000 1.0000
59.3600 384.0000 1.0000
59.3700 403.0000 1.0000
59.3800 400.0000 1.0000
59.3900 409.0000 1.0000
59.4000 370.0000 1.0000
59.4100 373.0000 1.0000
59.4200 391.0000 1.0000
59.4300 413.0000 1.0000
59.4400 385.0000 1.0000
59.4500 411.0000 1.0000
59.4600 365.0000 1.0000
59.4700 352.0000 1.0000
59.4800 399.0000 1.0000
59.4900 413.0000 1.0000
59.5000 400.0000 1.0000
59.5100 376.0000 1.0000
59.5200 389.0000 1.0000
59.5300 407.0000 1.0000
59.5400 404.0000 1.0000
59.5500 347.0000 1.0000
59.5600 383.0000 1.0000
59.5700 395.0000 1.0000
59.5800 382.0000 1.0000
59.5900 393.0000 1.0000
59.6000 436.0000 1.0000
59.6100 410.0000 1.0000
59.6200 392.0000 1.0000
59.6300 392.0000 1.0000
59.6400 371.0000 1.0000
59.6500 397.0000 1.0000
59.6600 398.0000 1.0000
59.6700 417.0000 1.0000
59.6800 407.0000 1.0000
59.6900 389.0000 1.0000
59.7000 390.0000 1.0000
59.7100 401.0000 1.0000
59.7200 392.0000 1.0000
59.7300 398.0000 1.0000
59.7400 413.0000 1.0000
59.7500 378.0000 1.0000
59.7600 391.0000 1.0000
59.7700 369.0000 1.0000
59.7800 381.0000 1.0000
59.7900 365.0000 1.0000
59.8000 391.0000 1.0000
59.8100 390.0000 1.0000
59.8200 400.0000 1.0000
59.8300 415.0000 1.0000
59.8400 360.0000 1.0000
59.8500 430.0000 1.0000
59.8600 398.0000 1.0000
59.8700 375.0000 1.0000
59.8800 407.0000 1.0000
59.8900 401.0000 1.0000
59.9000 417.0000 1.0000
59.9100 381.0000 1.0000
59.9200 401.0000 1.0000
59.9300 369.0000 1.0000
59.9400 365.0000 1.0000
59.9500 375.0000 1.0000
59.9600 384.0000 1.0000
59.9700 379.0000 1.0000
59.9800 399.0000 1.0000
59.9900 392.0000 1.0000
60.0000 355.0000 1.0000
60.0100 392.0000 1.0000
60.0200 402.0000 1.0000
60.0300 390.0000 1.0000
60.0400 396.0000 1.0000
60.0500 386.0000 1.0000
60.0600 371.0000 1.0000
60.0700 349.0000 1.0000
60.0800 371.0000 1.0000
60.0900 383.0000 1.0000
60.1000 394.0000 1.0000
60.1100 393.0000 1.0000
60.1200 408.0000 1.0000
60.1300 398.0000 1.0000
60.1400 387.0000 1.0000
60.1500 417.0000 1.0000
60.1600 365.0000 1.0000
60.1700 381.0000 1.0000
60.1800 395.0000 1.0000
60.1900 388.0000 1.0000
60.2000 395.0000 1.0000
60.2100 402.0000 1.0000
60.2200 396.0000 1.0000
60.2300 396.0000 1.0000
60.2400 386.0000 1.0000
60.2500 373.0000 1.0000
60.2600 387.0000 1.0000
60.2700 394.0000 1.0000
60.2800 385.0000 1.0000
60.2900 385.0000 1.0000
60.3000 390.0000 1.0000
60.3100 353.0000 1.0000
60.3200 404.0000 1.0000
60.3300 383.0000 1.0000
60.3400 399.0000 1.0000
60.3500 360.0000 1.0000
60.3600 387.0000 1.0000
60.3700 389.0000 1.0000
60.3800 388.0000 1.0000
60.3900 393.0000 1.0000
60.4000 396.0000 1.0000
60.4100 373.0000 1.0000
60.4200 395.0000 1.0000
60.4300 400.0000 1.0000
60.4400 408.0000 1.0000
60.4500 397.0000 1.0000
60.4600 407.0000 1.0000
60.4700 362.0000 1.0000
60.4800 411.0000 1.0000
60.4900 389.0000 1.0000
60.5000 360.0000 1.0000
60.5100 410.0000 1.0000
60.5200 407.0000 1.0000
60.5300 400.0000 1.0000
60.5400 412.0000 1.0000
60.5500 421.0000 1.0000
60.5600 362.0000 1.0000
60.5700 388.0000 1.0000
60.5800 379.0000 1.0000
60.5900 426.0000 1.0000
60.6000 413.0000 1.0000
60.6100 412.0000 1.0000
60.6200 382.0000 1.0000
60.6300 374.0000 1.0000
60.6400 390.0000 1.0000
60.6500 372.0000 1.0000
60.6600 386.0000 1.0000
60.6700 407.0000 1.0000
60.6800 403.0000 1.0000
60.6900 394.0000 1.0000
60.7000 403.0000 1.0000
60.7100 398.0000 1.0000
60.7200 422.0000 1.0000
60.7300 388.0000 1.0000
60.7400 376.0000 1.0000
60.7500 384.0000 1.0000
60.7600 410.0000 1.0000
60.7700 404.0000 1.0000
60.7800 388.0000 1.0000
60.7900 423.0000 1.0000
60.8000 389.0000 1.0000
60.8100 378.0000 1.0000
60.8200 396.0000 1.0000
60.8300 407.0000 1.0000
60.8400 379.0000 1.0000
60.8500 414.0000 1.0000
60.8600 413.0000 1.0000
60.8700 402.0000 1.0000
60.8800 390.0000 1.0000
60.8900 427.0000 1.0000
60.9000 407.0000 1.0000
60.9100 387.0000 1.0000
60.9200 419.0000 1.0000
60.9300 404.0000 1.0000
60.9400 385.0000 1.0000
60.9500 390.0000 1.0000
60.9600 421.0000 1.0000
60.9700 399.0000 1.0000
60.9800 370.0000 1.0000
60.9900 400.0000 1.0000
61.0000 404.0000 1.0000
61.0100 424.0000 1.0000
61.0200 432.0000 1.0000
61.0300 388.0000 1.0000
61.0400 411.0000 1.0000
61.0500 406.0000 1.0000
61.0600 425.0000 1.0000
61.0700 447.0000 1.0000
61.0800 416.0000 1.0000
61.0900 387.0000 1.0000
61.1000 434.0000 1.0000
61.1100 436.0000 1.0000
61.1200 447.0000 1.0000
61.1300 445.0000 1.0000
61.1400 447.0000 1.0000
61.1500 434.0000 1.0000
61.1600 450.0000 1.0000
61.1700 462.0000 1.0000
61.1800 416.0000 1.0000
61.1900 445.0000 1.0000
61.2000 467.0000 1.0000
61.2100 433.0000 1.0000
61.2200 451.0000 1.0000
61.2300 460.0000 1.0000
61.2400 452.0000 1.0000
61.2500 465.0000 1.0000
61.2600 464.0000 1.0000
61.2700 523.0000 1.0000
61.2800 534.0000 1.0000
61.2900 505.0000 1.0000
61.3000 523.0000 1.0000
61.3100 547.0000 1.0000
61.3200 570.0000 1.0000
61.3300 543.0000 1.0000
61.3400 591.0000 1.0000
61.3500 615.0000 1.0000
61.3600 609.0000 1.0000
61.3700 628.0000 1.0000
61.3800 660.0000 1.0000
61.3900 640.0000 1.0000
61.4000 652.0000 1.0000
61.4100 744.0000 1.0000
61.4200 709.0000 1.0000
61.4300 769.0000 1.0000
61.4400 763.0000 1.0000
61.4500 777.0000 1.0000
61.4600 764.0000 1.0000
61.4700 770.0000 1.0000
61.4800 832.0000 1.0000
61.4900 814.0000 1.0000
61.5000 826.0000 1.0000
61.5100 860.0000 1.0000
61.5200 878.0000 1.0000
61.5300 898.0000 1.0000
61.5400 900.0000 1.0000
61.5500 890.0000 1.0000
61.5600 834.0000 1.0000
61.5700 855.0000 1.0000
61.5800 871.0000 1.0000
61.5900 902.0000 1.0000
61.6000 867.0000 1.0000
61.6100 890.0000 1.0000
61.6200 882.0000 1.0000
61.6300 821.0000 1.0000
61.6400 828.0000 1.0000
61.6500 804.0000 1.0000
61.6600 760.0000 1.0000
61.6700 796.0000 1.0000
61.6800 777.0000 1.0000
61.6900 778.0000 1.0000
61.7000 782.0000 1.0000
61.7100 787.0000 1.0000
61.7200 732.0000 1.0000
61.7300 714.0000 1.0000
61.7400 742.0000 1.0000
61.7500 688.0000 1.0000
61.7600 734.0000 1.0000
61.7700 687.0000 1.0000
61.7800 628.0000 1.0000
61.7900 611.0000 1.0000
61.8000 651.0000 1.0000
61.8100 625.0000 1.0000
61.8200 620.0000 1.0000
61.8300 631.0000 1.0000
61.8400 624.0000 1.0000
61.8500 559.0000 1.0000
61.8600 588.0000 1.0000
61.8700 553.0000 1.0000
61.8800 535.0000 1.0000
61.8900 533.0000 1.0000
61.9000 560.0000 1.0000
61.9100 505.0000 1.0000
61.9200 538.0000 1.0000
61.9300 484.0000 1.0000
61.9400 528.0000 1.0000
61.9500 510.0000 1.0000
61.9600 467.0000 1.0000
61.9700 470.0000 1.0000
61.9800 442.0000 1.0000
61.9900 492.0000 1.0000
62.0000 492.0000 1.0000
62.0100 471.0000 1.0000
62.0200 493.0000 1.0000
62.0300 446.0000 1.0000
62.0400 456.0000 1.0000
62.0500 446.0000 1.0000
62.0600 460.0000 1.0000
62.0700 439.0000 1.0000
62.0800 419.0000 1.0000
62.0900 416.0000 1.0000
62.1000 426.0000 1.0000
62.1100 458.0000 1.0000
62.1200 414.0000 1.0000
62.1300 458.0000 1.0000
62.1400 450.0000 1.0000
62.1500 445.0000 1.0000
62.1600 437.0000 1.0000
62.1700 452.0000 1.0000
62.1800 428.0000 1.0000
62.1900 449.0000 1.0000
62.2000 469.0000 1.0000
62.2100 435.0000 1.0000
62.2200 418.0000 1.0000
62.2300 427.0000 1.0000
62.2400 444.0000 1.0000
62.2500 465.0000 1.0000
62.2600 423.0000 1.0000
62.2700 445.0000 1.0000
62.2800 446.0000 1.0000
62.2900 461.0000 1.0000
62.3000 438.0000 1.0000
62.3100 474.0000 1.0000
62.3200 457.0000 1.0000
62.3300 452.0000 1.0000
62.3400 452.0000 1.0000
62.3500 455.0000 1.0000
62.3600 475.0000 1.0000
62.3700 490.0000 1.0000
62.3800 479.0000 1.0000
62.3900 494.0000 1.0000
62.4000 461.0000 1.0000
62.4100 470.0000 1.0000
62.4200 453.0000 1.0000
62.4300 459.0000 1.0000
62.4400 459.0000 1.0000
62.4500 478.0000 1.0000
62.4600 487.0000 1.0000
62.4700 429.0000 1.0000
62.4800 464.0000 1.0000
62.4900 469.0000 1.0000
62.5000 465.0000 1.0000
62.5100 431.0000 1.0000
62.5200 409.0000 1.0000
62.5300 425.0000 1.0000
62.5400 439.0000 1.0000
62.5500 460.0000 1.0000
62.5600 462.0000 1.0000
62.5700 429.0000 1.0000
62.5800 449.0000 1.0000
62.5900 450.0000 1.0000
62.6000 431.0000 1.0000
62.6100 447.0000 1.0000
62.6200 404.0000 1.0000
62.6300 413.0000 1.0000
62.6400 427.0000 1.0000
62.6500 394.0000 1.0000
62.6600 401.0000 1.0000
62.6700 422.0000 1.0000
62.6800 417.0000 1.0000
62.6900 381.0000 1.0000
62.7000 400.0000 1.0000
62.7100 398.0000 1.0000
62.7200 385.0000 1.0000
62.7300 396.0000 1.0000
62.7400 393.0000 1.0000
62.7500 386.0000 1.0000
62.7600 402.0000 1.0000
62.7700 407.0000 1.0000
62.7800 390.0000 1.0000
62.7900 427.0000 1.0000
62.8000 409.0000 1.0000
62.8100 352.0000 1.0000
62.8200 361.0000 1.0000
62.8300 392.0000 1.0000
62.8400 368.0000 1.0000
62.8500 380.0000 1.0000
62.8600 374.0000 1.0000
62.8700 395.0000 1.0000
62.8800 374.0000 1.0000
62.8900 409.0000 1.0000
62.9000 396.0000 1.0000
62.9100 382.0000 1.0000
62.9200 391.0000 1.0000
62.9300 399.0000 1.0000
62.9400 403.0000 1.0000
62.9500 401.0000 1.0000
62.9600 401.0000 1.0000
62.9700 375.0000 1.0000
62.9800 365.0000 1.0000
62.9900 336.0000 1.0000
63.0000 403.0000 1.0000
63.0100 375.0000 1.0000
63.0200 371.0000 1.0000
63.0300 385.0000 1.0000
63.0400 365.0000 1.0000
63.0500 409.0000 1.0000
63.0600 415.0000 1.0000
63.0700 392.0000 1.0000
63.0800 428.0000 1.0000
63.0900 434.0000 1.0000
63.1000 410.0000 1.0000
63.1100 410.0000 1.0000
63.1200 392.0000 1.0000
63.1300 374.0000 1.0000
63.1400 409.0000 1.0000
63.1500 384.0000 1.0000
63.1600 354.0000 1.0000
63.1700 376.0000 1.0000
63.1800 371.0000 1.0000
63.1900 358.0000 1.0000
63.2000 410.0000 1.0000
63.2100 400.0000 1.0000
63.2200 372.0000 1.0000
63.2300 368.0000 1.0000
63.2400 391.0000 1.0000
63.2500 412.0000 1.0000
63.2600 374.0000 1.0000
63.2700 367.0000 1.0000
63.2800 413.0000 1.0000
63.2900 407.0000 1.0000
63.3000 407.0000 1.0000
63.3100 409.0000 1.0000
63.3200 402.0000 1.0000
63.3300 430.0000 1.0000
63.3400 405.0000 1.0000
63.3500 404.0000 1.0000
63.3600 399.0000 1.0000
63.3700 406.0000 1.0000
63.3800 371.0000 1.0000
63.3900 370.0000 1.0000
63.4000 390.0000 1.0000
63.4100 390.0000 1.0000
63.4200 385.0000 1.0000
63.4300 410.0000 1.0000
63.4400 434.0000 1.0000
63.4500 397.0000 1.0000
63.4600 384.0000 1.0000
63.4700 374.0000 1.0000
63.4800 389.0000 1.0000
63.4900 364.0000 1.0000
63.5000 373.0000 1.0000
63.5100 379.0000 1.0000
63.5200 420.0000 1.0000
63.5300 390.0000 1.0000
63.5400 368.0000 1.0000
63.5500 396.0000 1.0000
63.5600 400.0000 1.0000
63.5700 375.0000 1.0000
63.5800 359.0000 1.0000
63.5900 375.0000 1.0000
63.6000 378.0000 1.0000
63.6100 379.0000 1.0000
63.6200 416.0000 1.0000
63.6300 412.0000 1.0000
63.6400 404.0000 1.0000
63.6500 398.0000 1.0000
63.6600 348.0000 1.0000
63.6700 381.0000 1.0000
63.6800 397.0000 1.0000
63.6900 393.0000 1.0000
63.7000 405.0000 1.0000
63.7100 380.0000 1.0000
63.7200 392.0000 1.0000
63.7300 420.0000 1.0000
63.7400 398.0000 1.0000
63.7500 406.0000 1.0000
63.7600 407.0000 1.0000
63.7700 452.0000 1.0000
63.7800 386.0000 1.0000
63.7900 439.0000 1.0000
63.8000 436.0000 1.0000
63.8100 444.0000 1.0000
63.8200 405.0000 1.0000
63.8300 431.0000 1.0000
63.8400 455.0000 1.0000
63.8500 457.0000 1.0000
63.8600 414.0000 1.0000
63.8700 475.0000 1.0000
63.8800 454.0000 1.0000
63.8900 480.0000 1.0000
63.9000 463.0000 1.0000
63.9100 473.0000 1.0000
63.9200 504.0000 1.0000
63.9300 498.0000 1.0000
63.9400 482.0000 1.0000
63.9500 484.0000 1.0000
63.9600 475.0000 1.0000
63.9700 503.0000 1.0000
63.9800 488.0000 1.0000
63.9900 479.0000 1.0000
64.0000 484.0000 1.0000
64.0100 487.0000 1.0000
64.0200 482.0000 1.0000
64.0300 473.0000 1.0000
64.0400 503.0000 1.0000
64.0500 455.0000 1.0000
64.0600 447.0000 1.0000
64.0700 447.0000 1.0000
64.0800 467.0000 1.0000
64.0900 462.0000 1.0000
64.1000 476.0000 1.0000
64.1100 481.0000 1.0000
64.1200 456.0000 1.0000
64.1300 438.0000 1.0000
64.1400 430.0000 1.0000
64.1500 436.0000 1.0000
64.1600 439.0000 1.0000
64.1700 418.0000 1.0000
64.1800 430.0000 1.0000
64.1900 443.0000 1.0000
64.2000 415.0000 1.0000
64.2100 434.0000 1.0000
64.2200 444.0000 1.0000
64.2300 452.0000 1.0000
64.2400 442.0000 1.0000
64.2500 387.0000 1.0000
64.2600 392.0000 1.0000
64.2700 427.0000 1.0000
64.2800 422.0000 1.0000
64.2900 427.0000 1.0000
64.3000 455.0000 1.0000
64.3100 415.0000 1.0000
64.3200 399.0000 1.0000
64.3300 403.0000 1.0000
64.3400 411.0000 1.0000
64.3500 406.0000 1.0000
64.3600 424.0000 1.0000
64.3700 408.0000 1.0000
64.3800 377.0000 1.0000
64.3900 374.0000 1.0000
64.4000 393.0000 1.0000
64.4100 390.0000 1.0000
64.4200 396.0000 1.0000
64.4300 410.0000 1.0000
64.4400 434.0000 1.0000
64.4500 430.0000 1.0000
64.4600 392.0000 1.0000
64.4700 408.0000 1.0000
64.4800 418.0000 1.0000
64.4900 425.0000 1.0000
64.5000 419.0000 1.0000
64.5100 415.0000 1.0000
64.5200 370.0000 1.0000
64.5300 386.0000 1.0000
64.5400 411.0000 1.0000
64.5500 392.0000 1.0000
64.5600 401.0000 1.0000
64.5700 389.0000 1.0000
64.5800 414.0000 1.0000
64.5900 384.0000 1.0000
64.6000 421.0000 1.0000
64.6100 406.0000 1.0000
64.6200 389.0000 1.0000
64.6300 403.0000 1.0000
64.6400 424.0000 1.0000
64.6500 426.0000 1.0000
64.6600 436.0000 1.0000
64.6700 372.0000 1.0000
64.6800 391.0000 1.0000
64.6900 377.0000 1.0000
64.7000 381.0000 1.0000
64.7100 413.0000 1.0000
64.7200 422.0000 1.0000
64.7300 363.0000 1.0000
64.7400 403.0000 1.0000
64.7500 409.0000 1.0000
64.7600 383.0000 1.0000
64.7700 399.0000 1.0000
64.7800 397.0000 1.0000
64.7900 402.0000 1.0000
64.8000 415.0000 1.0000
64.8100 393.0000 1.0000
64.8200 407.0000 1.0000
64.8300 389.0000 1.0000
64.8400 379.0000 1.0000
64.8500 435.0000 1.0000
64.8600 407.0000 1.0000
64.8700 412.0000 1.0000
64.8800 409.0000 1.0000
64.8900 399.0000 1.0000
64.9000 380.0000 1.0000
64.9100 395.0000 1.0000
64.9200 397.0000 1.0000
64.9300 418.0000 1.0000
64.9400 432.0000 1.0000
64.9500 448.0000 1.0000
64.9600 441.0000 1.0000
64.9700 422.0000 1.0000
64.9800 422.0000 1.0000
64.9900 435.0000 1.0000
65.0000 442.0000 1.0000
65.0100 405.0000 1.0000
65.0200 432.0000 1.0000
65.0300 401.0000 1.0000
65.0400 417.0000 1.0000
65.0500 425.0000 1.0000
65.0600 438.0000 1.0000
65.0700 447.0000 1.0000
65.0800 452.0000 1.0000
65.0900 453.0000 1.0000
65.1000 452.0000 1.0000
65.1100 466.0000 1.0000
65.1200 429.0000 1.0000
65.1300 504.0000 1.0000
65.1400 486.0000 1.0000
65.1500 464.0000 1.0000
65.1600 468.0000 1.0000
65.1700 470.0000 1.0000
65.1800 517.0000 1.0000
65.1900 500.0000 1.0000
65.2000 509.0000 1.0000
65.2100 509.0000 1.0000
65.2200 523.0000 1.0000
65.2300 543.0000 1.0000
65.2400 546.0000 1.0000
65.2500 530.0000 1.0000
65.2600 580.0000 1.0000
65.2700 559.0000 1.0000
65.2800 597.0000 1.0000
65.2900 606.0000 1.0000
65.3000 609.0000 1.0000
65.3100 662.0000 1.0000
65.3200 642.0000 1.0000
65.3300 666.0000 1.0000
65.3400 742.0000 1.0000
65.3500 763.0000 1.0000
65.3600 748.0000 1.0000
65.3700 834.0000 1.0000
65.3800 870.0000 1.0000
65.3900 900.0000 1.0000
65.4000 908.0000 1.0000
65.4100 948.0000 1.0000
65.4200 1023.0000 1.0000
65.4300 1062.0000 1.0000
65.4400 1124.0000 1.0000
65.4500 1132.0000 1.0000
65.4600 1195.0000 1.0000
65.4700 1246.0000 1.0000
65.4800 1318.0000 1.0000
65.4900 1385.0000 1.0000
65.5000 1370.0000 1.0000
65.5100 1394.0000 1.0000
65.5200 1447.0000 1.0000
65.5300 1514.0000 1.0000
65.5400 1506.0000 1.0000
65.5500 1491.0000 1.0000
65.5600 1582.0000 1.0000
65.5700 1505.0000 1.0000
65.5800 1447.0000 1.0000
65.5900 1373.0000 1.0000
65.6000 1396.0000 1.0000
65.6100 1427.0000 1.0000
65.6200 1378.0000 1.0000
65.6300 1279.0000 1.0000
65.6400 1280.0000 1.0000
65.6500 1354.0000 1.0000
65.6600 1239.0000 1.0000
65.6700 1185.0000 1.0000
65.6800 1269.0000 1.0000
65.6900 1282.0000 1.0000
65.7000 1256.0000 1.0000
65.7100 1198.0000 1.0000
65.7200 1148.0000 1.0000
65.7300 1148.0000 1.0000
65.7400 1164.0000 1.0000
65.7500 1078.0000 1.0000
65.7600 1056.0000 1.0000
65.7700 1002.0000 1.0000
65.7800 934.0000 1.0000
65.7900 963.0000 1.0000
65.8000 898.0000 1.0000
65.8100 903.0000 1.0000
65.8200 864.0000 1.0000
65.8300 793.0000 1.0000
65.8400 793.0000 1.0000
65.8500 734.0000 1.0000
65.8600 719.0000 1.0000
65.8700 657.0000 1.0000
65.8800 678.0000 1.0000
65.8900 672.0000 1.0000
65.9000 637.0000 1.0000
65.9100 590.0000 1.0000
65.9200 566.0000 1.0000
65.9300 556.0000 1.0000
65.9400 566.0000 1.0000
65.9500 560.0000 1.0000
65.9600 568.0000 1.0000
65.9700 565.0000 1.0000
65.9800 513.0000 1.0000
65.9900 492.0000 1.0000
66.0000 488.0000 1.0000
66.0100 471.0000 1.0000
66.0200 496.0000 1.0000
66.0300 454.0000 1.0000
66.0400 437.0000 1.0000
66.0500 444.0000 1.0000
66.0600 411.0000 1.0000
66.0700 432.0000 1.0000
66.0800 427.0000 1.0000
66.0900 463.0000 1.0000
66.1000 454.0000 1.0000
66.1100 414.0000 1.0000
66.1200 432.0000 1.0000
66.1300 443.0000 1.0000
66.1400 419.0000 1.0000
66.1500 437.0000 1.0000
66.1600 451.0000 1.0000
66.1700 434.0000 1.0000
66.1800 427.0000 1.0000
66.1900 405.0000 1.0000
66.2000 392.0000 1.0000
66.2100 422.0000 1.0000
66.2200 402.0000 1.0000
66.2300 408.0000 1.0000
66.2400 404.0000 1.0000
66.2500 432.0000 1.0000
66.2600 413.0000 1.0000
66.2700 405.0000 1.0000
66.2800 365.0000 1.0000
66.2900 379.0000 1.0000
66.3000 395.0000 1.0000
66.3100 406.0000 1.0000
66.3200 407.0000 1.0000
66.3300 387.0000 1.0000
66.3400 396.0000 1.0000
66.3500 385.0000 1.0000
66.3600 400.0000 1.0000
66.3700 376.0000 1.0000
66.3800 380.0000 1.0000
66.3900 356.0000 1.0000
66.4000 401.0000 1.0000
66.4100 397.0000 1.0000
66.4200 378.0000 1.0000
66.4300 407.0000 1.0000
66.4400 373.0000 1.0000
66.4500 380.0000 1.0000
66.4600 365.0000 1.0000
66.4700 382.0000 1.0000
66.4800 373.0000 1.0000
66.4900 383.0000 1.0000
66.5000 357.0000 1.0000
66.5100 379.0000 1.0000
66.5200 381.0000 1.0000
66.5300 408.0000 1.0000
66.5400 364.0000 1.0000
66.5500 355.0000 1.0000
66.5600 378.0000 1.0000
66.5700 375.0000 1.0000
66.5800 369.0000 1.0000
66.5900 400.0000 1.0000
66.6000 388.0000 1.0000
66.6100 385.0000 1.0000
66.6200 412.0000 1.0000
66.6300 347.0000 1.0000
66.6400 368.0000 1.0000
66.6500 374.0000 1.0000
66.6600 395.0000 1.0000
66.6700 377.0000 1.0000
66.6800 374.0000 1.0000
66.6900 366.0000 1.0000
66.7000 375.0000 1.0000
66.7100 385.0000 1.0000
66.7200 379.0000 1.0000
66.7300 383.0000 1.0000
66.7400 353.0000 1.0000
66.7500 360.0000 1.0000
66.7600 380.0000 1.0000
66.7700 376.0000 1.0000
66.7800 376.0000 1.0000
66.7900 365.0000 1.0000
66.8000 379.0000 1.0000
66.8100 371.0000 1.0000
66.8200 370.0000 1.0000
66.8300 374.0000 1.0000
66.8400 369.0000 1.0000
66.8500 407.0000 1.0000
66.8600 383.0000 1.0000
66.8700 376.0000 1.0000
66.8800 355.0000 1.0000
66.8900 353.0000 1.0000
66.9000 367.0000 1.0000
66.9100 377.0000 1.0000
66.9200 378.0000 1.0000
66.9300 388.0000 1.0000
66.9400 368.0000 1.0000
66.9500 370.0000 1.0000
66.9600 335.0000 1.0000
66.9700 358.0000 1.0000
66.9800 362.0000 1.0000
66.9900 381.0000 1.0000
67.0000 329.0000 1.0000
67.0100 333.0000 1.0000
67.0200 390.0000 1.0000
67.0300 355.0000 1.0000
67.0400 337.0000 1.0000
67.0500 384.0000 1.0000
67.0600 354.0000 1.0000
67.0700 354.0000 1.0000
67.0800 374.0000 1.0000
67.0900 332.0000 1.0000
67.1000 329.0000 1.0000
67.1100 375.0000 1.0000
67.1200 366.0000 1.0000
67.1300 337.0000 1.0000
67.1400 342.0000 1.0000
67.1500 346.0000 1.0000
67.1600 381.0000 1.0000
67.1700 363.0000 1.0000
67.1800 370.0000 1.0000
67.1900 374.0000 1.0000
67.2000 331.0000 1.0000
67.2100 368.0000 1.0000
67.2200 350.0000 1.0000
67.2300 355.0000 1.0000
67.2400 381.0000 1.0000
67.2500 375.0000 1.0000
67.2600 332.0000 1.0000
67.2700 347.0000 1.0000
67.2800 362.0000 1.0000
67.2900 368.0000 1.0000
67.3000 348.0000 1.0000
67.3100 369.0000 1.0000
67.3200 344.0000 1.0000
67.3300 344.0000 1.0000
67.3400 345.0000 1.0000
67.3500 379.0000 1.0000
67.3600 343.0000 1.0000
67.3700 349.0000 1.0000
67.3800 338.0000 1.0000
67.3900 314.0000 1.0000
67.4000 379.0000 1.0000
67.4100 354.0000 1.0000
67.4200 361.0000 1.0000
67.4300 375.0000 1.0000
67.4400 363.0000 1.0000
67.4500 340.0000 1.0000
67.4600 362.0000 1.0000
67.4700 348.0000 1.0000
67.4800 303.0000 1.0000
67.4900 330.0000 1.0000
67.5000 374.0000 1.0000
67.5100 326.0000 1.0000
67.5200 348.0000 1.0000
67.5300 360.0000 1.0000
67.5400 371.0000 1.0000
67.5500 359.0000 1.0000
67.5600 349.0000 1.0000
67.5700 353.0000 1.0000
67.5800 371.0000 1.0000
67.5900 364.0000 1.0000
67.6000 380.0000 1.0000
67.6100 334.0000 1.0000
67.6200 354.0000 1.0000
67.6300 360.0000 1.0000
67.6400 350.0000 1.0000
67.6500 343.0000 1.0000
67.6600 347.0000 1.0000
67.6700 368.0000 1.0000
67.6800 375.0000 1.0000
67.6900 370.0000 1.0000
67.7000 362.0000 1.0000
67.7100 349.0000 1.0000
67.7200 336.0000 1.0000
67.7300 339.0000 1.0000
67.7400 328.0000 1.0000
67.7500 361.0000 1.0000
67.7600 343.0000 1.0000
67.7700 346.0000 1.0000
67.7800 342.0000 1.0000
67.7900 334.0000 1.0000
67.8000 363.0000 1.0000
67.8100 351.0000 1.0000
67.8200 323.0000 1.0000
67.8300 365.0000 1.0000
67.8400 373.0000 1.0000
67.8500 347.0000 1.0000
67.8600 348.0000 1.0000
67.8700 363.0000 1.0000
67.8800 349.0000 1.0000
67.8900 362.0000 1.0000
67.9000 386.0000 1.0000
67.9100 330.0000 1.0000
67.9200 339.0000 1.0000
67.9300 355.0000 1.0000
67.9400 338.0000 1.0000
67.9500 333.0000 1.0000
67.9600 374.0000 1.0000
67.9700 361.0000 1.0000
67.9800 333.0000 1.0000
67.9900 308.0000 1.0000
68.0000 355.0000 1.0000
68.0100 334.0000 1.0000
68.0200 367.0000 1.0000
68.0300 359.0000 1.0000
68.0400 335.0000 1.0000
68.0500 330.0000 1.0000
68.0600 345.0000 1.0000
68.0700 377.0000 1.0000
68.0800 356.0000 1.0000
68.0900 358.0000 1.0000
68.1000 345.0000 1.0000
68.1100 357.0000 1.0000
68.1200 369.0000 1.0000
68.1300 354.0000 1.0000
68.1400 331.0000 1.0000
68.1500 343.0000 1.0000
68.1600 332.0000 1.0000
68.1700 340.0000 1.0000
68.1800 355.0000 1.0000
68.1900 334.0000 1.0000
68.2000 346.0000 1.0000
68.2100 358.0000 1.0000
68.2200 351.0000 1.0000
68.2300 367.0000 1.0000
68.2400 360.0000 1.0000
68.2500 340.0000 1.0000
68.2600 351.0000 1.0000
68.2700 338.0000 1.0000
68.2800 334.0000 1.0000
68.2900 316.0000 1.0000
68.3000 345.0000 1.0000
68.3100 352.0000 1.0000
68.3200 335.0000 1.0000
68.3300 338.0000 1.0000
68.3400 372.0000 1.0000
68.3500 353.0000 1.0000
68.3600 324.0000 1.0000
68.3700 311.0000 1.0000
68.3800 346.0000 1.0000
68.3900 357.0000 1.0000
68.4000 359.0000 1.0000
68.4100 344.0000 1.0000
68.4200 355.0000 1.0000
68.4300 323.0000 1.0000
68.4400 323.0000 1.0000
68.4500 340.0000 1.0000
68.4600 327.0000 1.0000
68.4700 352.0000 1.0000
68.4800 318.0000 1.0000
68.4900 337.0000 1.0000
68.5000 316.0000 1.0000
68.5100 347.0000 1.0000
68.5200 367.0000 1.0000
68.5300 356.0000 1.0000
68.5400 334.0000 1.0000
68.5500 338.0000 1.0000
68.5600 331.0000 1.0000
68.5700 323.0000 1.0000
68.5800 321.0000 1.0000
68.5900 323.0000 1.0000
68.6000 336.0000 1.0000
68.6100 338.0000 1.0000
68.6200 368.0000 1.0000
68.6300 307.0000 1.0000
68.6400 319.0000 1.0000
68.6500 346.0000 1.0000
68.6600 350.0000 1.0000
68.6700 343.0000 1.0000
68.6800 348.0000 1.0000
68.6900 342.0000 1.0000
68.7000 342.0000 1.0000
68.7100 345.0000 1.0000
68.7200 331.0000 1.0000
68.7300 343.0000 1.0000
68.7400 331.0000 1.0000
68.7500 337.0000 1.0000
68.7600 353.0000 1.0000
68.7700 362.0000 1.0000
68.7800 319.0000 1.0000
68.7900 365.0000 1.0000
68.8000 357.0000 1.0000
68.8100 358.0000 1.0000
68.8200 373.0000 1.0000
68.8300 362.0000 1.0000
68.8400 348.0000 1.0000
68.8500 333.0000 1.0000
68.8600 372.0000 1.0000
68.8700 371.0000 1.0000
68.8800 340.0000 1.0000
68.8900 346.0000 1.0000
68.9000 344.0000 1.0000
68.9100 359.0000 1.0000
68.9200 353.0000 1.0000
68.9300 363.0000 1.0000
68.9400 373.0000 1.0000
68.9500 362.0000 1.0000
68.9600 362.0000 1.0000
68.9700 335.0000 1.0000
68.9800 348.0000 1.0000
68.9900 366.0000 1.0000
69.0000 361.0000 1.0000
69.0100 348.0000 1.0000
69.0200 350.0000 1.0000
69.0300 355.0000 1.0000
69.0400 356.0000 1.0000
69.0500 324.0000 1.0000
69.0600 349.0000 1.0000
69.0700 325.0000 1.0000
69.0800 333.0000 1.0000
69.0900 333.0000 1.0000
69.1000 364.0000 1.0000
69.1100 378.0000 1.0000
69.1200 338.0000 1.0000
69.1300 331.0000 1.0000
69.1400 378.0000 1.0000
69.1500 358.0000 1.0000
69.1600 345.0000 1.0000
69.1700 343.0000 1.0000
69.1800 340.0000 1.0000
69.1900 344.0000 1.0000
69.2000 345.0000 1.0000
69.2100 327.0000 1.0000
69.2200 344.0000 1.0000
69.2300 319.0000 1.0000
69.2400 339.0000 1.0000
69.2500 351.0000 1.0000
69.2600 355.0000 1.0000
69.2700 326.0000 1.0000
69.2800 358.0000 1.0000
69.2900 357.0000 1.0000
69.3000 364.0000 1.0000
69.3100 369.0000 1.0000
69.3200 355.0000 1.0000
69.3300 344.0000 1.0000
69.3400 342.0000 1.0000
69.3500 366.0000 1.0000
69.3600 339.0000 1.0000
69.3700 334.0000 1.0000
69.3800 332.0000 1.0000
69.3900 337.0000 1.0000
69.4000 307.0000 1.0000
69.4100 360.0000 1.0000
69.4200 364.0000 1.0000
69.4300 336.0000 1.0000
69.4400 311.0000 1.0000
69.4500 320.0000 1.0000
69.4600 354.0000 1.0000
69.4700 325.0000 1.0000
69.4800 367.0000 1.0000
69.4900 343.0000 1.0000
69.5000 337.0000 1.0000
69.5100 340.0000 1.0000
69.5200 348.0000 1.0000
69.5300 324.0000 1.0000
69.5400 331.0000 1.0000
69.5500 330.0000 1.0000
69.5600 347.0000 1.0000
69.5700 332.0000 1.0000
69.5800 341.0000 1.0000
69.5900 327.0000 1.0000
69.6000 336.0000 1.0000
69.6100 335.0000 1.0000
69.6200 328.0000 1.0000
69.6300 338.0000 1.0000
69.6400 332.0000 1.0000
69.6500 336.0000 1.0000
69.6600 341.0000 1.0000
69.6700 337.0000 1.0000
69.6800 332.0000 1.0000
69.6900 374.0000 1.0000
69.7000 347.0000 1.0000
69.7100 332.0000 1.0000
69.7200 357.0000 1.0000
69.7300 338.0000 1.0000
69.7400 317.0000 1.0000
69.7500 358.0000 1.0000
69.7600 351.0000 1.0000
69.7700 359.0000 1.0000
69.7800 335.0000 1.0000
69.7900 331.0000 1.0000
69.8000 339.0000 1.0000
69.8100 333.0000 1.0000
69.8200 335.0000 1.0000
69.8300 324.0000 1.0000
69.8400 319.0000 1.0000
69.8500 315.0000 1.0000
69.8600 310.0000 1.0000
69.8700 360.0000 1.0000
69.8800 355.0000 1.0000
69.8900 339.0000 1.0000
69.9000 362.0000 1.0000
69.9100 367.0000 1.0000
69.9200 332.0000 1.0000
69.9300 334.0000 1.0000
69.9400 310.0000 1.0000
69.9500 349.0000 1.0000
69.9600 327.0000 1.0000
69.9700 352.0000 1.0000
69.9800 333.0000 1.0000
69.9900 371.0000 1.0000
70.0000 324.0000 1.0000
*RAS_INT_END
*RAS_TEMPERATURE_START
*RAS_TEMPERATURE_END
*RAS_DATA_END
