*RAS_DATA_START
*RAS_HEADER_START
*DISP_FMT_X "%.2f"
*DISP_FMT_Y "%.0f"
*DISP_FULLSCALE "12285.0000000000"
*DISP_LINE_COLOR "255.0000000000"
*DISP_LINE_STYLE "0.0000000000"
*DISP_LINE_WIDTH "0.2500000000"
*DISP_NOTE "測定データ-2"
*DISP_OFFSET_Y "0.0000000000"
*DISP_PEAKSEARCH_UNIT_Y "cps"
*DISP_RANGE_BOTTOM "0.0000000000"
*DISP_RANGE_LEFT "20.0000000000"
*DISP_RANGE_LOGCUTOFF "0.0100000000"
*DISP_RANGE_RIGHT "70.0000000000"
*DISP_RANGE_TOP "12285.0000000000"
*DISP_SCALE_MODE_Y "0.0000000000"
*DISP_TAB_NAME "2θ/θ"
*DISP_TITLE_Y "強度"
*DISP_UNIT_Y "cps"
*DISP_WINDOW_NAME "MSG_MACROENGINE"
*FILE_COMMENT " "
*FILE_MD5 ""
*FILE_MEMO " "
*FILE_OPERATOR "Administrator"
*FILE_SAMPLE " "
*FILE_TYPE "RAS_RAW"
*FILE_USERGROUP "システムマネージャ"
*FILE_VERSION "1.0000000000"
*HW_ATTACHMENT_ID "ATT0025"
*HW_ATTACHMENT_NAME "標準|Standard"
*HW_COUNTER_ID-0 "CUT0025"
*HW_COUNTER_ID-1 "CUT0020"
*HW_COUNTER_ID-2 "CUT0020"
*HW_COUNTER_ID-3 "CSL0021"
*HW_COUNTER_ID-4 "CMC0021"
*HW_COUNTER_NAME-0 "D/teX Ultra|D/teX Ultra"
*HW_COUNTER_NAME-1 "None|None"
*HW_COUNTER_NAME-2 "None|None"
*HW_COUNTER_NAME-3 "BBM|BBM"
*HW_COUNTER_NAME-4 "検出器モノクロメータ|Detector monochromator"
*HW_COUNTER_SELECT_NAME "D/teX Ultra|D/teX Ultra"
*HW_GONIOMETER_ID "GON0023"
*HW_GONIOMETER_NAME "SmartLab|SmartLab"
*HW_GONIOMETER_RADIUS-0 "90.0"
*HW_GONIOMETER_RADIUS-1 "114.0"
*HW_GONIOMETER_RADIUS-2 "190.0"
*HW_GONIOMETER_RADIUS-3 "300.0"
*HW_GONIOMETER_RADIUS-4 "187.0"
*HW_GONIOMETER_RADIUS-5 "300.0"
*HW_GONIOMETER_RADIUS-6 "113.0"
*HW_GONIOMETER_RADIUS-7 "331.0"
*HW_I_OPT_ID-0 "CBO0021"
*HW_I_OPT_ID-1 "ICR0023"
*HW_I_OPT_ID-2 "ISL0021"
*HW_I_OPT_ID-3 "ISO0021"
*HW_I_OPT_ID-4 "IAD0021"
*HW_I_OPT_ID-5 "IPR0001"
*HW_I_OPT_NAME-0 "CBOユニット|CBO unit"
*HW_I_OPT_NAME-1 "標準入射光学ユニット|Standard incident optical unit"
*HW_I_OPT_NAME-2 "標準入射スリットボックス|Standard incident slit box"
*HW_I_OPT_NAME-3 "入射平行スリット|Incident parallel slit"
*HW_I_OPT_NAME-4 "長手制限スリット|Length limiting slit"
*HW_I_OPT_NAME-5 "None|None"
*HW_R_ATTENUATER_AUTOMODE "0"
*HW_R_OPT_ID-0 "RSS0021"
*HW_R_OPT_ID-1 "RCR0023"
*HW_R_OPT_ID-2 "RSO0021"
*HW_R_OPT_ID-3 "RRS0021"
*HW_R_OPT_ID-4 "ATN0021"
*HW_R_OPT_ID-5 "RFL0021"
*HW_R_OPT_ID-6 "RAD0021"
*HW_R_OPT_NAME-0 "標準受光スリットボックス1|Standard receiving slit box # 1"
*HW_R_OPT_NAME-1 "標準受光光学ユニット1|Standard receiving unit # 1"
*HW_R_OPT_NAME-2 "標準受光光学ユニット2|Standard receiving optical unit # 2"
*HW_R_OPT_NAME-3 "標準受光スリットボックス2|Standard receiving slit box # 2"
*HW_R_OPT_NAME-4 "標準アッテネータ|Standard Attenuator"
*HW_R_OPT_NAME-5 "Cu Kβ|Cu K-beta"
*HW_R_OPT_NAME-6 "調整用受光スリット|Alignment receiving slit"
*HW_SAMPLE_HOLDER_ID "SMP0023"
*HW_SAMPLE_HOLDER_NAME "標準Zステージ|Standard Z stage"
*HW_XG_CURRENT_MAX "50"
*HW_XG_CURRENT_MIN "2"
*HW_XG_CURRENT_RESOLUTION "1"
*HW_XG_CURRENT_UNIT "mA"
*HW_XG_FOCUS "1mm x 10mm"
*HW_XG_FOCUS_TYPE "Normal"
*HW_XG_ID ""
*HW_XG_NAME "3kW 封入管(ID:1200)|3kW Sealed tube(ID:1200)"
*HW_XG_TARGET_ATOMIC_NUMBER "29.0000000000"
*HW_XG_TARGET_NAME "Cu"
*HW_XG_TYPE "Hermetic"
*HW_XG_VOLTAGE_MAX "60"
*HW_XG_VOLTAGE_MIN "20"
*HW_XG_VOLTAGE_RESOLUTION "1"
*HW_XG_VOLTAGE_UNIT "kV"
*HW_XG_WATT_MAX "1.500"
*HW_XG_WATT_UNIT "kW"
*HW_XG_WAVE_LENGTH_ALPHA1 "1.540593"
*HW_XG_WAVE_LENGTH_ALPHA2 "1.544414"
*HW_XG_WAVE_LENGTH_BETA "1.392250"
*MEAS_COND_AXIS_NAME-0 "2θ/θ"
*MEAS_COND_AXIS_NAME-1 "2θ"
*MEAS_COND_AXIS_NAME-2 "ω"
*MEAS_COND_AXIS_NAME-3 "Z"
*MEAS_COND_AXIS_NAME-4 "2θ/ω"
*MEAS_COND_AXIS_NAME-5 "θs"
*MEAS_COND_AXIS_NAME-6 "θd"
*MEAS_COND_AXIS_NAME-7 "Ts"
*MEAS_COND_AXIS_NAME-8 "CBO選択スリット"
*MEAS_COND_AXIS_NAME-9 "M"
*MEAS_COND_AXIS_NAME-10 "入射平行スリット"
*MEAS_COND_AXIS_NAME-11 "入射スリット"
*MEAS_COND_AXIS_NAME-12 ""
*MEAS_COND_AXIS_NAME-13 "Zs"
*MEAS_COND_AXIS_NAME-14 "入射光学素子"
*MEAS_COND_AXIS_NAME-15 "長手制限スリット"
*MEAS_COND_AXIS_NAME-16 "センタースリット"
*MEAS_COND_AXIS_NAME-17 "フィルター"
*MEAS_COND_AXIS_NAME-18 "受光スリット1"
*MEAS_COND_AXIS_NAME-19 "受光スリット2"
*MEAS_COND_AXIS_NAME-20 "受光光学素子"
*MEAS_COND_AXIS_NAME-21 "受光平行スリット"
*MEAS_COND_AXIS_NAME-22 "調整用受光スリット"
*MEAS_COND_AXIS_NAME-23 ""
*MEAS_COND_AXIS_NAME-24 ""
*MEAS_COND_AXIS_NAME-25 "Zd"
*MEAS_COND_AXIS_NAME-26 "アッテネータ"
*MEAS_COND_AXIS_NAME-27 "検出器モノクロメータ"
*MEAS_COND_AXIS_NAME-28 "モノクロメータスリット"
*MEAS_COND_AXIS_NAME-29 "プライマリビーム"
*MEAS_COND_AXIS_NAME-30 "PHA"
*MEAS_COND_AXIS_NAME_INTERNAL-0 "TwoThetaTheta"
*MEAS_COND_AXIS_NAME_INTERNAL-1 "TwoTheta"
*MEAS_COND_AXIS_NAME_INTERNAL-2 "Omega"
*MEAS_COND_AXIS_NAME_INTERNAL-3 "Z"
*MEAS_COND_AXIS_NAME_INTERNAL-4 "TwoThetaOmega"
*MEAS_COND_AXIS_NAME_INTERNAL-5 "ThetaS"
*MEAS_COND_AXIS_NAME_INTERNAL-6 "ThetaD"
*MEAS_COND_AXIS_NAME_INTERNAL-7 "Ts"
*MEAS_COND_AXIS_NAME_INTERNAL-8 "CBO"
*MEAS_COND_AXIS_NAME_INTERNAL-9 "CBO-M"
*MEAS_COND_AXIS_NAME_INTERNAL-10 "IncidentSollerSlit"
*MEAS_COND_AXIS_NAME_INTERNAL-11 "IncidentSlitBox"
*MEAS_COND_AXIS_NAME_INTERNAL-12 "IncidentSlitBox-_Axis"
*MEAS_COND_AXIS_NAME_INTERNAL-13 "Zs"
*MEAS_COND_AXIS_NAME_INTERNAL-14 "IncidentMonochromator"
*MEAS_COND_AXIS_NAME_INTERNAL-15 "IncidentAxdSlit"
*MEAS_COND_AXIS_NAME_INTERNAL-16 "CenterSlit"
*MEAS_COND_AXIS_NAME_INTERNAL-17 "Filter"
*MEAS_COND_AXIS_NAME_INTERNAL-18 "ReceivingSlitBox1"
*MEAS_COND_AXIS_NAME_INTERNAL-19 "ReceivingSlitBox2"
*MEAS_COND_AXIS_NAME_INTERNAL-20 "ReceivingOptics"
*MEAS_COND_AXIS_NAME_INTERNAL-21 "ReceivingSollerSlit"
*MEAS_COND_AXIS_NAME_INTERNAL-22 "ReceivingAxdSlit"
*MEAS_COND_AXIS_NAME_INTERNAL-23 "ReceivingSlitBox1-_Axis"
*MEAS_COND_AXIS_NAME_INTERNAL-24 "ReceivingSlitBox2-_Axis"
*MEAS_COND_AXIS_NAME_INTERNAL-25 "ReceivingSlitBox2-Zd"
*MEAS_COND_AXIS_NAME_INTERNAL-26 "Attenuator"
*MEAS_COND_AXIS_NAME_INTERNAL-27 "CounterMonochromator"
*MEAS_COND_AXIS_NAME_INTERNAL-28 "CounterSlit"
*MEAS_COND_AXIS_NAME_INTERNAL-29 "IncidentPrimary"
*MEAS_COND_AXIS_NAME_INTERNAL-30 "PHA"
*MEAS_COND_AXIS_NAME_MAGICNO-0 "83951616.0000000000"
*MEAS_COND_AXIS_NAME_MAGICNO-1 "268632064.0000000000"
*MEAS_COND_AXIS_NAME_MAGICNO-2 "268500992.0000000000"
*MEAS_COND_AXIS_NAME_MAGICNO-3 "285278208.0000000000"
*MEAS_COND_AXIS_NAME_MAGICNO-4 "83951616.0000000000"
*MEAS_COND_AXIS_NAME_MAGICNO-5 "131072.0000000000"
*MEAS_COND_AXIS_NAME_MAGICNO-6 "131072.0000000000"
*MEAS_COND_AXIS_NAME_MAGICNO-7 "318898176.0000000000"
*MEAS_COND_AXIS_NAME_MAGICNO-8 "20971521.0000000000"
*MEAS_COND_AXIS_NAME_MAGICNO-9 "285343744.0000000000"
*MEAS_COND_AXIS_NAME_MAGICNO-10 "20971521.0000000000"
*MEAS_COND_AXIS_NAME_MAGICNO-11 "22020097.0000000000"
*MEAS_COND_AXIS_NAME_MAGICNO-12 "25165824.0000000000"
*MEAS_COND_AXIS_NAME_MAGICNO-13 "318898176.0000000000"
*MEAS_COND_AXIS_NAME_MAGICNO-14 "1.0000000000"
*MEAS_COND_AXIS_NAME_MAGICNO-15 "20971521.0000000000"
*MEAS_COND_AXIS_NAME_MAGICNO-16 "20971521.0000000000"
*MEAS_COND_AXIS_NAME_MAGICNO-17 "20971521.0000000000"
*MEAS_COND_AXIS_NAME_MAGICNO-18 "23068673.0000000000"
*MEAS_COND_AXIS_NAME_MAGICNO-19 "23068673.0000000000"
*MEAS_COND_AXIS_NAME_MAGICNO-20 "20971521.0000000000"
*MEAS_COND_AXIS_NAME_MAGICNO-21 "20971521.0000000000"
*MEAS_COND_AXIS_NAME_MAGICNO-22 "20971521.0000000000"
*MEAS_COND_AXIS_NAME_MAGICNO-23 "25165824.0000000000"
*MEAS_COND_AXIS_NAME_MAGICNO-24 "25165824.0000000000"
*MEAS_COND_AXIS_NAME_MAGICNO-25 "285343744.0000000000"
*MEAS_COND_AXIS_NAME_MAGICNO-26 "17301505.0000000000"
*MEAS_COND_AXIS_NAME_MAGICNO-27 "20971521.0000000000"
*MEAS_COND_AXIS_NAME_MAGICNO-28 "20971521.0000000000"
*MEAS_COND_AXIS_NAME_MAGICNO-29 "20971521.0000000000"
*MEAS_COND_AXIS_NAME_MAGICNO-30 "0.0000000000"
*MEAS_COND_AXIS_OFFSET-0 "-"
*MEAS_COND_AXIS_OFFSET-1 "-0.1081000000"
*MEAS_COND_AXIS_OFFSET-2 "0.3758000000"
*MEAS_COND_AXIS_OFFSET-3 "-"
*MEAS_COND_AXIS_OFFSET-4 "-"
*MEAS_COND_AXIS_OFFSET-5 "0.3758000000"
*MEAS_COND_AXIS_OFFSET-6 "-0.4839000000"
*MEAS_COND_AXIS_OFFSET-7 "-"
*MEAS_COND_AXIS_OFFSET-8 "-"
*MEAS_COND_AXIS_OFFSET-9 "-"
*MEAS_COND_AXIS_OFFSET-10 "-"
*MEAS_COND_AXIS_OFFSET-11 "-"
*MEAS_COND_AXIS_OFFSET-12 "-"
*MEAS_COND_AXIS_OFFSET-13 "-"
*MEAS_COND_AXIS_OFFSET-14 "-"
*MEAS_COND_AXIS_OFFSET-15 "-"
*MEAS_COND_AXIS_OFFSET-16 "-"
*MEAS_COND_AXIS_OFFSET-17 "-"
*MEAS_COND_AXIS_OFFSET-18 "-"
*MEAS_COND_AXIS_OFFSET-19 "-"
*MEAS_COND_AXIS_OFFSET-20 "-"
*MEAS_COND_AXIS_OFFSET-21 "-"
*MEAS_COND_AXIS_OFFSET-22 "-"
*MEAS_COND_AXIS_OFFSET-23 "-"
*MEAS_COND_AXIS_OFFSET-24 "-"
*MEAS_COND_AXIS_OFFSET-25 "-"
*MEAS_COND_AXIS_OFFSET-26 "-"
*MEAS_COND_AXIS_OFFSET-27 "-"
*MEAS_COND_AXIS_OFFSET-28 "-"
*MEAS_COND_AXIS_OFFSET-29 "-"
*MEAS_COND_AXIS_OFFSET-30 "-"
*MEAS_COND_AXIS_POSITION-0 "0.0000000000"
*MEAS_COND_AXIS_POSITION-1 "0.0000000000"
*MEAS_COND_AXIS_POSITION-2 "0.0000000000"
*MEAS_COND_AXIS_POSITION-3 "-0.5500000000"
*MEAS_COND_AXIS_POSITION-4 "0.0000000000"
*MEAS_COND_AXIS_POSITION-5 "0.0000000000"
*MEAS_COND_AXIS_POSITION-6 "0.0000000000"
*MEAS_COND_AXIS_POSITION-7 "-0.4278800000"
*MEAS_COND_AXIS_POSITION-8 "BB"
*MEAS_COND_AXIS_POSITION-9 "0.0000000000"
*MEAS_COND_AXIS_POSITION-10 "Soller_slit_5.0deg"
*MEAS_COND_AXIS_POSITION-11 "2/3deg"
*MEAS_COND_AXIS_POSITION-12 "2.2088000000"
*MEAS_COND_AXIS_POSITION-13 "-0.4140600000"
*MEAS_COND_AXIS_POSITION-14 "0.0000000000"
*MEAS_COND_AXIS_POSITION-15 "10.0mm"
*MEAS_COND_AXIS_POSITION-16 "None"
*MEAS_COND_AXIS_POSITION-17 "Cu_K-beta"
*MEAS_COND_AXIS_POSITION-18 "13.000mm"
*MEAS_COND_AXIS_POSITION-19 "13.000mm"
*MEAS_COND_AXIS_POSITION-20 "No_unit"
*MEAS_COND_AXIS_POSITION-21 "Soller_slit_5.0deg"
*MEAS_COND_AXIS_POSITION-22 "None"
*MEAS_COND_AXIS_POSITION-23 "13.0000000000"
*MEAS_COND_AXIS_POSITION-24 "13.0000000000"
*MEAS_COND_AXIS_POSITION-25 "0.0109400000"
*MEAS_COND_AXIS_POSITION-26 "Open"
*MEAS_COND_AXIS_POSITION-27 "None"
*MEAS_COND_AXIS_POSITION-28 "None"
*MEAS_COND_AXIS_POSITION-29 "None"
*MEAS_COND_AXIS_POSITION-30 "38.0000000000"
*MEAS_COND_AXIS_UNIT-0 "deg"
*MEAS_COND_AXIS_UNIT-1 "deg"
*MEAS_COND_AXIS_UNIT-2 "deg"
*MEAS_COND_AXIS_UNIT-3 "mm"
*MEAS_COND_AXIS_UNIT-4 "deg"
*MEAS_COND_AXIS_UNIT-5 "deg"
*MEAS_COND_AXIS_UNIT-6 "deg"
*MEAS_COND_AXIS_UNIT-7 "mm"
*MEAS_COND_AXIS_UNIT-8 ""
*MEAS_COND_AXIS_UNIT-9 "pulse"
*MEAS_COND_AXIS_UNIT-10 ""
*MEAS_COND_AXIS_UNIT-11 ""
*MEAS_COND_AXIS_UNIT-12 "mm"
*MEAS_COND_AXIS_UNIT-13 "mm"
*MEAS_COND_AXIS_UNIT-14 ""
*MEAS_COND_AXIS_UNIT-15 ""
*MEAS_COND_AXIS_UNIT-16 ""
*MEAS_COND_AXIS_UNIT-17 ""
*MEAS_COND_AXIS_UNIT-18 ""
*MEAS_COND_AXIS_UNIT-19 ""
*MEAS_COND_AXIS_UNIT-20 ""
*MEAS_COND_AXIS_UNIT-21 ""
*MEAS_COND_AXIS_UNIT-22 ""
*MEAS_COND_AXIS_UNIT-23 "mm"
*MEAS_COND_AXIS_UNIT-24 "mm"
*MEAS_COND_AXIS_UNIT-25 "mm"
*MEAS_COND_AXIS_UNIT-26 ""
*MEAS_COND_AXIS_UNIT-27 ""
*MEAS_COND_AXIS_UNIT-28 ""
*MEAS_COND_AXIS_UNIT-29 ""
*MEAS_COND_AXIS_UNIT-30 "div"
*MEAS_COND_COUNTER_CNTLOSS_CORR "0.0000000000"
*MEAS_COND_COUNTER_PHABASE "38.0000000000"
*MEAS_COND_COUNTER_PHAWINDOW "16.0000000000"
*MEAS_COND_COUNTER_PHA_UNIT "div"
*MEAS_COND_COUNTER_TAUDIFF "30.0000000000"
*MEAS_COND_COUNTER_TAUINT "0.0000000000"
*MEAS_COND_IRRADIATION_MODE "OFF"
*MEAS_COND_IRRADIATION_WIDTH ""
*MEAS_COND_OPT_ATTR "集中法"
*MEAS_COND_OPT_NAME "@集中法"
*MEAS_COND_UNSYMMETRIC_MODE "OFF"
*MEAS_COND_XG_CURRENT "30.0000000000"
*MEAS_COND_XG_VOLTAGE "40.0000000000"
*MEAS_COND_XG_WAVE_TYPE "Ka"
*MEAS_DATA_COUNT "5001.0000000000"
*MEAS_SCAN_AXIS_X "2θ/θ"
*MEAS_SCAN_AXIS_X_INTERNAL "TwoThetaTheta"
*MEAS_SCAN_END_TIME "08/03/21 11:58:08"
*MEAS_SCAN_MODE "CONTINUOUS"
*MEAS_SCAN_MONITOR "0"
*MEAS_SCAN_RESOLUTION_X "0.0002"
*MEAS_SCAN_SPEED "2.5"
*MEAS_SCAN_SPEED_UNIT "deg/min"
*MEAS_SCAN_START "20.0000000000"
*MEAS_SCAN_START_TIME "08/03/21 11:36:45"
*MEAS_SCAN_STEP "0.0100000000"
*MEAS_SCAN_STOP "70.0000000000"
*MEAS_SCAN_UNIT_X "deg"
*MEAS_SCAN_UNIT_Y "counts"
*RAS_HEADER_END
*RAS_INT_START
20.0000 654.0000 1.0000
20.0100 624.0000 1.0000
20.0200 599.0000 1.0000
20.0300 617.0000 1.0000
20.0400 613.0000 1.0000
20.0500 572.0000 1.0000
20.0600 588.0000 1.0000
20.0700 603.0000 1.0000
20.0800 592.0000 1.0000
20.0900 605.0000 1.0000
20.1000 573.0000 1.0000
20.1100 623.0000 1.0000
20.1200 641.0000 1.0000
20.1300 575.0000 1.0000
20.1400 586.0000 1.0000
20.1500 590.0000 1.0000
20.1600 607.0000 1.0000
20.1700 591.0000 1.0000
20.1800 614.0000 1.0000
20.1900 563.0000 1.0000
20.2000 608.0000 1.0000
20.2100 569.0000 1.0000
20.2200 566.0000 1.0000
20.2300 558.0000 1.0000
20.2400 605.0000 1.0000
20.2500 621.0000 1.0000
20.2600 619.0000 1.0000
20.2700 634.0000 1.0000
20.2800 605.0000 1.0000
20.2900 604.0000 1.0000
20.3000 588.0000 1.0000
20.3100 611.0000 1.0000
20.3200 576.0000 1.0000
20.3300 635.0000 1.0000
20.3400 584.0000 1.0000
20.3500 625.0000 1.0000
20.3600 583.0000 1.0000
20.3700 599.0000 1.0000
20.3800 597.0000 1.0000
20.3900 592.0000 1.0000
20.4000 622.0000 1.0000
20.4100 634.0000 1.0000
20.4200 637.0000 1.0000
20.4300 621.0000 1.0000
20.4400 591.0000 1.0000
20.4500 608.0000 1.0000
20.4600 601.0000 1.0000
20.4700 633.0000 1.0000
20.4800 557.0000 1.0000
20.4900 611.0000 1.0000
20.5000 588.0000 1.0000
20.5100 599.0000 1.0000
20.5200 621.0000 1.0000
20.5300 586.0000 1.0000
20.5400 611.0000 1.0000
20.5500 572.0000 1.0000
20.5600 588.0000 1.0000
20.5700 567.0000 1.0000
20.5800 597.0000 1.0000
20.5900 608.0000 1.0000
20.6000 616.0000 1.0000
20.6100 625.0000 1.0000
20.6200 596.0000 1.0000
20.6300 555.0000 1.0000
20.6400 586.0000 1.0000
20.6500 550.0000 1.0000
20.6600 595.0000 1.0000
20.6700 573.0000 1.0000
20.6800 567.0000 1.0000
20.6900 571.0000 1.0000
20.7000 623.0000 1.0000
20.7100 594.0000 1.0000
20.7200 564.0000 1.0000
20.7300 575.0000 1.0000
20.7400 561.0000 1.0000
20.7500 604.0000 1.0000
20.7600 631.0000 1.0000
20.7700 553.0000 1.0000
20.7800 607.0000 1.0000
20.7900 644.0000 1.0000
20.8000 585.0000 1.0000
20.8100 610.0000 1.0000
20.8200 608.0000 1.0000
20.8300 613.0000 1.0000
20.8400 613.0000 1.0000
20.8500 588.0000 1.0000
20.8600 581.0000 1.0000
20.8700 597.0000 1.0000
20.8800 584.0000 1.0000
20.8900 619.0000 1.0000
20.9000 574.0000 1.0000
20.9100 591.0000 1.0000
20.9200 618.0000 1.0000
20.9300 612.0000 1.0000
20.9400 601.0000 1.0000
20.9500 601.0000 1.0000
20.9600 568.0000 1.0000
20.9700 560.0000 1.0000
20.9800 592.0000 1.0000
20.9900 598.0000 1.0000
21.0000 579.0000 1.0000
21.0100 591.0000 1.0000
21.0200 603.0000 1.0000
21.0300 584.0000 1.0000
21.0400 573.0000 1.0000
21.0500 592.0000 1.0000
21.0600 588.0000 1.0000
21.0700 549.0000 1.0000
21.0800 617.0000 1.0000
21.0900 629.0000 1.0000
21.1000 605.0000 1.0000
21.1100 613.0000 1.0000
21.1200 613.0000 1.0000
21.1300 577.0000 1.0000
21.1400 624.0000 1.0000
21.1500 611.0000 1.0000
21.1600 603.0000 1.0000
21.1700 591.0000 1.0000
21.1800 630.0000 1.0000
21.1900 605.0000 1.0000
21.2000 592.0000 1.0000
21.2100 571.0000 1.0000
21.2200 555.0000 1.0000
21.2300 538.0000 1.0000
21.2400 551.0000 1.0000
21.2500 594.0000 1.0000
21.2600 626.0000 1.0000
21.2700 571.0000 1.0000
21.2800 577.0000 1.0000
21.2900 617.0000 1.0000
21.3000 570.0000 1.0000
21.3100 605.0000 1.0000
21.3200 619.0000 1.0000
21.3300 579.0000 1.0000
21.3400 583.0000 1.0000
21.3500 601.0000 1.0000
21.3600 562.0000 1.0000
21.3700 567.0000 1.0000
21.3800 622.0000 1.0000
21.3900 599.0000 1.0000
21.4000 583.0000 1.0000
21.4100 558.0000 1.0000
21.4200 537.0000 1.0000
21.4300 595.0000 1.0000
21.4400 622.0000 1.0000
21.4500 607.0000 1.0000
21.4600 593.0000 1.0000
21.4700 601.0000 1.0000
21.4800 591.0000 1.0000
21.4900 611.0000 1.0000
21.5000 584.0000 1.0000
21.5100 586.0000 1.0000
21.5200 615.0000 1.0000
21.5300 598.0000 1.0000
21.5400 589.0000 1.0000
21.5500 605.0000 1.0000
21.5600 583.0000 1.0000
21.5700 602.0000 1.0000
21.5800 617.0000 1.0000
21.5900 603.0000 1.0000
21.6000 604.0000 1.0000
21.6100 593.0000 1.0000
21.6200 608.0000 1.0000
21.6300 594.0000 1.0000
21.6400 615.0000 1.0000
21.6500 588.0000 1.0000
21.6600 630.0000 1.0000
21.6700 584.0000 1.0000
21.6800 599.0000 1.0000
21.6900 580.0000 1.0000
21.7000 586.0000 1.0000
21.7100 580.0000 1.0000
21.7200 591.0000 1.0000
21.7300 609.0000 1.0000
21.7400 592.0000 1.0000
21.7500 607.0000 1.0000
21.7600 556.0000 1.0000
21.7700 574.0000 1.0000
21.7800 584.0000 1.0000
21.7900 627.0000 1.0000
21.8000 592.0000 1.0000
21.8100 568.0000 1.0000
21.8200 593.0000 1.0000
21.8300 587.0000 1.0000
21.8400 629.0000 1.0000
21.8500 595.0000 1.0000
21.8600 610.0000 1.0000
21.8700 572.0000 1.0000
21.8800 589.0000 1.0000
21.8900 550.0000 1.0000
21.9000 643.0000 1.0000
21.9100 602.0000 1.0000
21.9200 610.0000 1.0000
21.9300 599.0000 1.0000
21.9400 654.0000 1.0000
21.9500 582.0000 1.0000
21.9600 560.0000 1.0000
21.9700 588.0000 1.0000
21.9800 611.0000 1.0000
21.9900 616.0000 1.0000
22.0000 620.0000 1.0000
22.0100 606.0000 1.0000
22.0200 610.0000 1.0000
22.0300 599.0000 1.0000
22.0400 604.0000 1.0000
22.0500 616.0000 1.0000
22.0600 601.0000 1.0000
22.0700 616.0000 1.0000
22.0800 619.0000 1.0000
22.0900 628.0000 1.0000
22.1000 594.0000 1.0000
22.1100 592.0000 1.0000
22.1200 606.0000 1.0000
22.1300 597.0000 1.0000
22.1400 625.0000 1.0000
22.1500 587.0000 1.0000
22.1600 576.0000 1.0000
22.1700 599.0000 1.0000
22.1800 582.0000 1.0000
22.1900 611.0000 1.0000
22.2000 621.0000 1.0000
22.2100 619.0000 1.0000
22.2200 582.0000 1.0000
22.2300 622.0000 1.0000
22.2400 571.0000 1.0000
22.2500 612.0000 1.0000
22.2600 594.0000 1.0000
22.2700 561.0000 1.0000
22.2800 587.0000 1.0000
22.2900 566.0000 1.0000
22.3000 607.0000 1.0000
22.3100 576.0000 1.0000
22.3200 577.0000 1.0000
22.3300 606.0000 1.0000
22.3400 579.0000 1.0000
22.3500 599.0000 1.0000
22.3600 570.0000 1.0000
22.3700 623.0000 1.0000
22.3800 610.0000 1.0000
22.3900 609.0000 1.0000
22.4000 607.0000 1.0000
22.4100 614.0000 1.0000
22.4200 570.0000 1.0000
22.4300 592.0000 1.0000
22.4400 590.0000 1.0000
22.4500 576.0000 1.0000
22.4600 619.0000 1.0000
22.4700 584.0000 1.0000
22.4800 582.0000 1.0000
22.4900 579.0000 1.0000
22.5000 609.0000 1.0000
22.5100 571.0000 1.0000
22.5200 579.0000 1.0000
22.5300 603.0000 1.0000
22.5400 592.0000 1.0000
22.5500 569.0000 1.0000
22.5600 607.0000 1.0000
22.5700 557.0000 1.0000
22.5800 597.0000 1.0000
22.5900 620.0000 1.0000
22.6000 584.0000 1.0000
22.6100 582.0000 1.0000
22.6200 596.0000 1.0000
22.6300 615.0000 1.0000
22.6400 588.0000 1.0000
22.6500 565.0000 1.0000
22.6600 624.0000 1.0000
22.6700 578.0000 1.0000
22.6800 588.0000 1.0000
22.6900 652.0000 1.0000
22.7000 605.0000 1.0000
22.7100 589.0000 1.0000
22.7200 585.0000 1.0000
22.7300 583.0000 1.0000
22.7400 627.0000 1.0000
22.7500 615.0000 1.0000
22.7600 604.0000 1.0000
22.7700 613.0000 1.0000
22.7800 611.0000 1.0000
22.7900 586.0000 1.0000
22.8000 604.0000 1.0000
22.8100 585.0000 1.0000
22.8200 606.0000 1.0000
22.8300 636.0000 1.0000
22.8400 602.0000 1.0000
22.8500 645.0000 1.0000
22.8600 630.0000 1.0000
22.8700 589.0000 1.0000
22.8800 651.0000 1.0000
22.8900 646.0000 1.0000
22.9000 618.0000 1.0000
22.9100 613.0000 1.0000
22.9200 598.0000 1.0000
22.9300 609.0000 1.0000
22.9400 624.0000 1.0000
22.9500 579.0000 1.0000
22.9600 594.0000 1.0000
22.9700 605.0000 1.0000
22.9800 575.0000 1.0000
22.9900 614.0000 1.0000
23.0000 634.0000 1.0000
23.0100 589.0000 1.0000
23.0200 577.0000 1.0000
23.0300 569.0000 1.0000
23.0400 614.0000 1.0000
23.0500 618.0000 1.0000
23.0600 579.0000 1.0000
23.0700 618.0000 1.0000
23.0800 581.0000 1.0000
23.0900 603.0000 1.0000
23.1000 619.0000 1.0000
23.1100 593.0000 1.0000
23.1200 599.0000 1.0000
23.1300 612.0000 1.0000
23.1400 581.0000 1.0000
23.1500 568.0000 1.0000
23.1600 589.0000 1.0000
23.1700 626.0000 1.0000
23.1800 580.0000 1.0000
23.1900 565.0000 1.0000
23.2000 549.0000 1.0000
23.2100 613.0000 1.0000
23.2200 598.0000 1.0000
23.2300 613.0000 1.0000
23.2400 591.0000 1.0000
23.2500 578.0000 1.0000
23.2600 593.0000 1.0000
23.2700 609.0000 1.0000
23.2800 621.0000 1.0000
23.2900 615.0000 1.0000
23.3000 621.0000 1.0000
23.3100 575.0000 1.0000
23.3200 592.0000 1.0000
23.3300 593.0000 1.0000
23.3400 577.0000 1.0000
23.3500 600.0000 1.0000
23.3600 614.0000 1.0000
23.3700 599.0000 1.0000
23.3800 604.0000 1.0000
23.3900 567.0000 1.0000
23.4000 608.0000 1.0000
23.4100 584.0000 1.0000
23.4200 628.0000 1.0000
23.4300 617.0000 1.0000
23.4400 610.0000 1.0000
23.4500 617.0000 1.0000
23.4600 621.0000 1.0000
23.4700 597.0000 1.0000
23.4800 514.0000 1.0000
23.4900 618.0000 1.0000
23.5000 593.0000 1.0000
23.5100 616.0000 1.0000
23.5200 565.0000 1.0000
23.5300 587.0000 1.0000
23.5400 611.0000 1.0000
23.5500 542.0000 1.0000
23.5600 621.0000 1.0000
23.5700 638.0000 1.0000
23.5800 621.0000 1.0000
23.5900 593.0000 1.0000
23.6000 601.0000 1.0000
23.6100 604.0000 1.0000
23.6200 569.0000 1.0000
23.6300 588.0000 1.0000
23.6400 602.0000 1.0000
23.6500 592.0000 1.0000
23.6600 641.0000 1.0000
23.6700 620.0000 1.0000
23.6800 592.0000 1.0000
23.6900 591.0000 1.0000
23.7000 616.0000 1.0000
23.7100 591.0000 1.0000
23.7200 623.0000 1.0000
23.7300 595.0000 1.0000
23.7400 611.0000 1.0000
23.7500 591.0000 1.0000
23.7600 625.0000 1.0000
23.7700 625.0000 1.0000
23.7800 634.0000 1.0000
23.7900 619.0000 1.0000
23.8000 628.0000 1.0000
23.8100 607.0000 1.0000
23.8200 637.0000 1.0000
23.8300 601.0000 1.0000
23.8400 585.0000 1.0000
23.8500 592.0000 1.0000
23.8600 603.0000 1.0000
23.8700 644.0000 1.0000
23.8800 622.0000 1.0000
23.8900 607.0000 1.0000
23.9000 601.0000 1.0000
23.9100 620.0000 1.0000
23.9200 563.0000 1.0000
23.9300 606.0000 1.0000
23.9400 572.0000 1.0000
23.9500 651.0000 1.0000
23.9600 634.0000 1.0000
23.9700 646.0000 1.0000
23.9800 619.0000 1.0000
23.9900 598.0000 1.0000
24.0000 590.0000 1.0000
24.0100 629.0000 1.0000
24.0200 629.0000 1.0000
24.0300 619.0000 1.0000
24.0400 567.0000 1.0000
24.0500 628.0000 1.0000
24.0600 626.0000 1.0000
24.0700 591.0000 1.0000
24.0800 597.0000 1.0000
24.0900 626.0000 1.0000
24.1000 605.0000 1.0000
24.1100 605.0000 1.0000
24.1200 604.0000 1.0000
24.1300 612.0000 1.0000
24.1400 632.0000 1.0000
24.1500 622.0000 1.0000
24.1600 614.0000 1.0000
24.1700 571.0000 1.0000
24.1800 586.0000 1.0000
24.1900 592.0000 1.0000
24.2000 585.0000 1.0000
24.2100 623.0000 1.0000
24.2200 608.0000 1.0000
24.2300 596.0000 1.0000
24.2400 590.0000 1.0000
24.2500 659.0000 1.0000
24.2600 663.0000 1.0000
24.2700 651.0000 1.0000
24.2800 632.0000 1.0000
24.2900 593.0000 1.0000
24.3000 546.0000 1.0000
24.3100 645.0000 1.0000
24.3200 623.0000 1.0000
24.3300 608.0000 1.0000
24.3400 561.0000 1.0000
24.3500 605.0000 1.0000
24.3600 612.0000 1.0000
24.3700 579.0000 1.0000
24.3800 583.0000 1.0000
24.3900 604.0000 1.0000
24.4000 612.0000 1.0000
24.4100 618.0000 1.0000
24.4200 620.0000 1.0000
24.4300 608.0000 1.0000
24.4400 605.0000 1.0000
24.4500 630.0000 1.0000
24.4600 644.0000 1.0000
24.4700 624.0000 1.0000
24.4800 658.0000 1.0000
24.4900 626.0000 1.0000
24.5000 611.0000 1.0000
24.5100 585.0000 1.0000
24.5200 627.0000 1.0000
24.5300 610.0000 1.0000
24.5400 598.0000 1.0000
24.5500 612.0000 1.0000
24.5600 672.0000 1.0000
24.5700 667.0000 1.0000
24.5800 677.0000 1.0000
24.5900 643.0000 1.0000
24.6000 624.0000 1.0000
24.6100 651.0000 1.0000
24.6200 649.0000 1.0000
24.6300 609.0000 1.0000
24.6400 647.0000 1.0000
24.6500 591.0000 1.0000
24.6600 636.0000 1.0000
24.6700 633.0000 1.0000
24.6800 622.0000 1.0000
24.6900 641.0000 1.0000
24.7000 611.0000 1.0000
24.7100 656.0000 1.0000
24.7200 632.0000 1.0000
24.7300 631.0000 1.0000
24.7400 619.0000 1.0000
24.7500 595.0000 1.0000
24.7600 617.0000 1.0000
24.7700 604.0000 1.0000
24.7800 624.0000 1.0000
24.7900 656.0000 1.0000
24.8000 604.0000 1.0000
24.8100 645.0000 1.0000
24.8200 638.0000 1.0000
24.8300 630.0000 1.0000
24.8400 613.0000 1.0000
24.8500 629.0000 1.0000
24.8600 603.0000 1.0000
24.8700 645.0000 1.0000
24.8800 624.0000 1.0000
24.8900 609.0000 1.0000
24.9000 605.0000 1.0000
24.9100 658.0000 1.0000
24.9200 631.0000 1.0000
24.9300 692.0000 1.0000
24.9400 684.0000 1.0000
24.9500 628.0000 1.0000
24.9600 622.0000 1.0000
24.9700 651.0000 1.0000
24.9800 609.0000 1.0000
24.9900 609.0000 1.0000
25.0000 615.0000 1.0000
25.0100 615.0000 1.0000
25.0200 646.0000 1.0000
25.0300 672.0000 1.0000
25.0400 643.0000 1.0000
25.0500 636.0000 1.0000
25.0600 621.0000 1.0000
25.0700 626.0000 1.0000
25.0800 665.0000 1.0000
25.0900 623.0000 1.0000
25.1000 632.0000 1.0000
25.1100 640.0000 1.0000
25.1200 599.0000 1.0000
25.1300 629.0000 1.0000
25.1400 639.0000 1.0000
25.1500 651.0000 1.0000
25.1600 619.0000 1.0000
25.1700 630.0000 1.0000
25.1800 633.0000 1.0000
25.1900 631.0000 1.0000
25.2000 603.0000 1.0000
25.2100 638.0000 1.0000
25.2200 621.0000 1.0000
25.2300 599.0000 1.0000
25.2400 609.0000 1.0000
25.2500 603.0000 1.0000
25.2600 628.0000 1.0000
25.2700 608.0000 1.0000
25.2800 619.0000 1.0000
25.2900 643.0000 1.0000
25.3000 628.0000 1.0000
25.3100 616.0000 1.0000
25.3200 624.0000 1.0000
25.3300 639.0000 1.0000
25.3400 589.0000 1.0000
25.3500 602.0000 1.0000
25.3600 620.0000 1.0000
25.3700 633.0000 1.0000
25.3800 649.0000 1.0000
25.3900 674.0000 1.0000
25.4000 615.0000 1.0000
25.4100 586.0000 1.0000
25.4200 623.0000 1.0000
25.4300 602.0000 1.0000
25.4400 642.0000 1.0000
25.4500 605.0000 1.0000
25.4600 609.0000 1.0000
25.4700 660.0000 1.0000
25.4800 626.0000 1.0000
25.4900 621.0000 1.0000
25.5000 602.0000 1.0000
25.5100 608.0000 1.0000
25.5200 614.0000 1.0000
25.5300 632.0000 1.0000
25.5400 599.0000 1.0000
25.5500 613.0000 1.0000
25.5600 577.0000 1.0000
25.5700 635.0000 1.0000
25.5800 611.0000 1.0000
25.5900 644.0000 1.0000
25.6000 637.0000 1.0000
25.6100 628.0000 1.0000
25.6200 606.0000 1.0000
25.6300 635.0000 1.0000
25.6400 597.0000 1.0000
25.6500 600.0000 1.0000
25.6600 600.0000 1.0000
25.6700 611.0000 1.0000
25.6800 608.0000 1.0000
25.6900 629.0000 1.0000
25.7000 610.0000 1.0000
25.7100 582.0000 1.0000
25.7200 621.0000 1.0000
25.7300 602.0000 1.0000
25.7400 628.0000 1.0000
25.7500 613.0000 1.0000
25.7600 617.0000 1.0000
25.7700 622.0000 1.0000
25.7800 630.0000 1.0000
25.7900 628.0000 1.0000
25.8000 631.0000 1.0000
25.8100 594.0000 1.0000
25.8200 623.0000 1.0000
25.8300 634.0000 1.0000
25.8400 607.0000 1.0000
25.8500 615.0000 1.0000
25.8600 583.0000 1.0000
25.8700 667.0000 1.0000
25.8800 630.0000 1.0000
25.8900 631.0000 1.0000
25.9000 617.0000 1.0000
25.9100 647.0000 1.0000
25.9200 607.0000 1.0000
25.9300 637.0000 1.0000
25.9400 570.0000 1.0000
25.9500 615.0000 1.0000
25.9600 605.0000 1.0000
25.9700 616.0000 1.0000
25.9800 613.0000 1.0000
25.9900 638.0000 1.0000
26.0000 644.0000 1.0000
26.0100 627.0000 1.0000
26.0200 607.0000 1.0000
26.0300 564.0000 1.0000
26.0400 589.0000 1.0000
26.0500 636.0000 1.0000
26.0600 618.0000 1.0000
26.0700 616.0000 1.0000
26.0800 614.0000 1.0000
26.0900 578.0000 1.0000
26.1000 638.0000 1.0000
26.1100 605.0000 1.0000
26.1200 633.0000 1.0000
26.1300 586.0000 1.0000
26.1400 694.0000 1.0000
26.1500 657.0000 1.0000
26.1600 610.0000 1.0000
26.1700 626.0000 1.0000
26.1800 648.0000 1.0000
26.1900 585.0000 1.0000
26.2000 623.0000 1.0000
26.2100 607.0000 1.0000
26.2200 673.0000 1.0000
26.2300 634.0000 1.0000
26.2400 607.0000 1.0000
26.2500 587.0000 1.0000
26.2600 651.0000 1.0000
26.2700 643.0000 1.0000
26.2800 608.0000 1.0000
26.2900 640.0000 1.0000
26.3000 661.0000 1.0000
26.3100 614.0000 1.0000
26.3200 598.0000 1.0000
26.3300 625.0000 1.0000
26.3400 623.0000 1.0000
26.3500 646.0000 1.0000
26.3600 655.0000 1.0000
26.3700 640.0000 1.0000
26.3800 635.0000 1.0000
26.3900 651.0000 1.0000
26.4000 656.0000 1.0000
26.4100 643.0000 1.0000
26.4200 623.0000 1.0000
26.4300 668.0000 1.0000
26.4400 690.0000 1.0000
26.4500 661.0000 1.0000
26.4600 654.0000 1.0000
26.4700 666.0000 1.0000
26.4800 652.0000 1.0000
26.4900 645.0000 1.0000
26.5000 644.0000 1.0000
26.5100 682.0000 1.0000
26.5200 695.0000 1.0000
26.5300 672.0000 1.0000
26.5400 622.0000 1.0000
26.5500 665.0000 1.0000
26.5600 642.0000 1.0000
26.5700 629.0000 1.0000
26.5800 678.0000 1.0000
26.5900 644.0000 1.0000
26.6000 642.0000 1.0000
26.6100 632.0000 1.0000
26.6200 636.0000 1.0000
26.6300 655.0000 1.0000
26.6400 643.0000 1.0000
26.6500 626.0000 1.0000
26.6600 698.0000 1.0000
26.6700 663.0000 1.0000
26.6800 677.0000 1.0000
26.6900 669.0000 1.0000
26.7000 602.0000 1.0000
26.7100 633.0000 1.0000
26.7200 686.0000 1.0000
26.7300 660.0000 1.0000
26.7400 628.0000 1.0000
26.7500 696.0000 1.0000
26.7600 643.0000 1.0000
26.7700 672.0000 1.0000
26.7800 717.0000 1.0000
26.7900 643.0000 1.0000
26.8000 712.0000 1.0000
26.8100 737.0000 1.0000
26.8200 720.0000 1.0000
26.8300 680.0000 1.0000
26.8400 674.0000 1.0000
26.8500 650.0000 1.0000
26.8600 726.0000 1.0000
26.8700 663.0000 1.0000
26.8800 657.0000 1.0000
26.8900 667.0000 1.0000
26.9000 709.0000 1.0000
26.9100 722.0000 1.0000
26.9200 703.0000 1.0000
26.9300 739.0000 1.0000
26.9400 742.0000 1.0000
26.9500 750.0000 1.0000
26.9600 746.0000 1.0000
26.9700 749.0000 1.0000
26.9800 785.0000 1.0000
26.9900 739.0000 1.0000
27.0000 767.0000 1.0000
27.0100 754.0000 1.0000
27.0200 786.0000 1.0000
27.0300 860.0000 1.0000
27.0400 906.0000 1.0000
27.0500 899.0000 1.0000
27.0600 905.0000 1.0000
27.0700 935.0000 1.0000
27.0800 899.0000 1.0000
27.0900 944.0000 1.0000
27.1000 985.0000 1.0000
27.1100 972.0000 1.0000
27.1200 1021.0000 1.0000
27.1300 1050.0000 1.0000
27.1400 1045.0000 1.0000
27.1500 1146.0000 1.0000
27.1600 1198.0000 1.0000
27.1700 1208.0000 1.0000
27.1800 1323.0000 1.0000
27.1900 1402.0000 1.0000
27.2000 1473.0000 1.0000
27.2100 1492.0000 1.0000
27.2200 1590.0000 1.0000
27.2300 1672.0000 1.0000
27.2400 1805.0000 1.0000
27.2500 1847.0000 1.0000
27.2600 1950.0000 1.0000
27.2700 1949.0000 1.0000
27.2800 2122.0000 1.0000
27.2900 2109.0000 1.0000
27.3000 2268.0000 1.0000
27.3100 2237.0000 1.0000
27.3200 2315.0000 1.0000
27.3300 2403.0000 1.0000
27.3400 2260.0000 1.0000
27.3500 2200.0000 1.0000
27.3600 2164.0000 1.0000
27.3700 2123.0000 1.0000
27.3800 2090.0000 1.0000
27.3900 1961.0000 1.0000
27.4000 1808.0000 1.0000
27.4100 1768.0000 1.0000
27.4200 1687.0000 1.0000
27.4300 1597.0000 1.0000
27.4400 1517.0000 1.0000
27.4500 1377.0000 1.0000
27.4600 1458.0000 1.0000
27.4700 1321.0000 1.0000
27.4800 1267.0000 1.0000
27.4900 1220.0000 1.0000
27.5000 1154.0000 1.0000
27.5100 1079.0000 1.0000
27.5200 1064.0000 1.0000
27.5300 1105.0000 1.0000
27.5400 993.0000 1.0000
27.5500 996.0000 1.0000
27.5600 982.0000 1.0000
27.5700 926.0000 1.0000
27.5800 929.0000 1.0000
27.5900 860.0000 1.0000
27.6000 890.0000 1.0000
27.6100 890.0000 1.0000
27.6200 837.0000 1.0000
27.6300 784.0000 1.0000
27.6400 763.0000 1.0000
27.6500 797.0000 1.0000
27.6600 784.0000 1.0000
27.6700 764.0000 1.0000
27.6800 730.0000 1.0000
27.6900 741.0000 1.0000
27.7000 749.0000 1.0000
27.7100 710.0000 1.0000
27.7200 726.0000 1.0000
27.7300 781.0000 1.0000
27.7400 768.0000 1.0000
27.7500 715.0000 1.0000
27.7600 701.0000 1.0000
27.7700 699.0000 1.0000
27.7800 701.0000 1.0000
27.7900 743.0000 1.0000
27.8000 735.0000 1.0000
27.8100 669.0000 1.0000
27.8200 685.0000 1.0000
27.8300 708.0000 1.0000
27.8400 677.0000 1.0000
27.8500 707.0000 1.0000
27.8600 710.0000 1.0000
27.8700 675.0000 1.0000
27.8800 636.0000 1.0000
27.8900 662.0000 1.0000
27.9000 652.0000 1.0000
27.9100 638.0000 1.0000
27.9200 653.0000 1.0000
27.9300 695.0000 1.0000
27.9400 682.0000 1.0000
27.9500 631.0000 1.0000
27.9600 641.0000 1.0000
27.9700 635.0000 1.0000
27.9800 681.0000 1.0000
27.9900 695.0000 1.0000
28.0000 662.0000 1.0000
28.0100 652.0000 1.0000
28.0200 658.0000 1.0000
28.0300 600.0000 1.0000
28.0400 628.0000 1.0000
28.0500 662.0000 1.0000
28.0600 663.0000 1.0000
28.0700 630.0000 1.0000
28.0800 617.0000 1.0000
28.0900 624.0000 1.0000
28.1000 645.0000 1.0000
28.1100 633.0000 1.0000
28.1200 649.0000 1.0000
28.1300 640.0000 1.0000
28.1400 623.0000 1.0000
28.1500 638.0000 1.0000
28.1600 634.0000 1.0000
28.1700 595.0000 1.0000
28.1800 649.0000 1.0000
28.1900 661.0000 1.0000
28.2000 633.0000 1.0000
28.2100 620.0000 1.0000
28.2200 623.0000 1.0000
28.2300 657.0000 1.0000
28.2400 635.0000 1.0000
28.2500 565.0000 1.0000
28.2600 626.0000 1.0000
28.2700 596.0000 1.0000
28.2800 642.0000 1.0000
28.2900 605.0000 1.0000
28.3000 633.0000 1.0000
28.3100 652.0000 1.0000
28.3200 648.0000 1.0000
28.3300 629.0000 1.0000
28.3400 635.0000 1.0000
28.3500 671.0000 1.0000
28.3600 645.0000 1.0000
28.3700 584.0000 1.0000
28.3800 620.0000 1.0000
28.3900 626.0000 1.0000
28.4000 642.0000 1.0000
28.4100 601.0000 1.0000
28.4200 629.0000 1.0000
28.4300 591.0000 1.0000
28.4400 593.0000 1.0000
28.4500 625.0000 1.0000
28.4600 610.0000 1.0000
28.4700 612.0000 1.0000
28.4800 666.0000 1.0000
28.4900 589.0000 1.0000
28.5000 640.0000 1.0000
28.5100 616.0000 1.0000
28.5200 607.0000 1.0000
28.5300 624.0000 1.0000
28.5400 646.0000 1.0000
28.5500 654.0000 1.0000
28.5600 626.0000 1.0000
28.5700 606.0000 1.0000
28.5800 581.0000 1.0000
28.5900 609.0000 1.0000
28.6000 613.0000 1.0000
28.6100 578.0000 1.0000
28.6200 582.0000 1.0000
28.6300 635.0000 1.0000
28.6400 620.0000 1.0000
28.6500 593.0000 1.0000
28.6600 580.0000 1.0000
28.6700 618.0000 1.0000
28.6800 628.0000 1.0000
28.6900 617.0000 1.0000
28.7000 647.0000 1.0000
28.7100 612.0000 1.0000
28.7200 632.0000 1.0000
28.7300 596.0000 1.0000
28.7400 611.0000 1.0000
28.7500 613.0000 1.0000
28.7600 636.0000 1.0000
28.7700 630.0000 1.0000
28.7800 633.0000 1.0000
28.7900 585.0000 1.0000
28.8000 587.0000 1.0000
28.8100 591.0000 1.0000
28.8200 642.0000 1.0000
28.8300 646.0000 1.0000
28.8400 613.0000 1.0000
28.8500 613.0000 1.0000
28.8600 624.0000 1.0000
28.8700 577.0000 1.0000
28.8800 617.0000 1.0000
28.8900 632.0000 1.0000
28.9000 642.0000 1.0000
28.9100 599.0000 1.0000
28.9200 591.0000 1.0000
28.9300 572.0000 1.0000
28.9400 590.0000 1.0000
28.9500 593.0000 1.0000
28.9600 612.0000 1.0000
28.9700 622.0000 1.0000
28.9800 586.0000 1.0000
28.9900 620.0000 1.0000
29.0000 629.0000 1.0000
29.0100 622.0000 1.0000
29.0200 587.0000 1.0000
29.0300 613.0000 1.0000
29.0400 574.0000 1.0000
29.0500 640.0000 1.0000
29.0600 656.0000 1.0000
29.0700 604.0000 1.0000
29.0800 603.0000 1.0000
29.0900 644.0000 1.0000
29.1000 648.0000 1.0000
29.1100 569.0000 1.0000
29.1200 617.0000 1.0000
29.1300 603.0000 1.0000
29.1400 613.0000 1.0000
29.1500 616.0000 1.0000
29.1600 640.0000 1.0000
29.1700 617.0000 1.0000
29.1800 571.0000 1.0000
29.1900 599.0000 1.0000
29.2000 592.0000 1.0000
29.2100 625.0000 1.0000
29.2200 591.0000 1.0000
29.2300 586.0000 1.0000
29.2400 599.0000 1.0000
29.2500 575.0000 1.0000
29.2600 628.0000 1.0000
29.2700 652.0000 1.0000
29.2800 599.0000 1.0000
29.2900 624.0000 1.0000
29.3000 639.0000 1.0000
29.3100 601.0000 1.0000
29.3200 612.0000 1.0000
29.3300 597.0000 1.0000
29.3400 579.0000 1.0000
29.3500 620.0000 1.0000
29.3600 645.0000 1.0000
29.3700 608.0000 1.0000
29.3800 560.0000 1.0000
29.3900 588.0000 1.0000
29.4000 584.0000 1.0000
29.4100 585.0000 1.0000
29.4200 611.0000 1.0000
29.4300 595.0000 1.0000
29.4400 604.0000 1.0000
29.4500 583.0000 1.0000
29.4600 597.0000 1.0000
29.4700 616.0000 1.0000
29.4800 620.0000 1.0000
29.4900 645.0000 1.0000
29.5000 584.0000 1.0000
29.5100 566.0000 1.0000
29.5200 578.0000 1.0000
29.5300 562.0000 1.0000
29.5400 597.0000 1.0000
29.5500 599.0000 1.0000
29.5600 633.0000 1.0000
29.5700 585.0000 1.0000
29.5800 566.0000 1.0000
29.5900 623.0000 1.0000
29.6000 593.0000 1.0000
29.6100 610.0000 1.0000
29.6200 642.0000 1.0000
29.6300 617.0000 1.0000
29.6400 589.0000 1.0000
29.6500 541.0000 1.0000
29.6600 660.0000 1.0000
29.6700 584.0000 1.0000
29.6800 601.0000 1.0000
29.6900 614.0000 1.0000
29.7000 598.0000 1.0000
29.7100 590.0000 1.0000
29.7200 586.0000 1.0000
29.7300 618.0000 1.0000
29.7400 636.0000 1.0000
29.7500 622.0000 1.0000
29.7600 567.0000 1.0000
29.7700 616.0000 1.0000
29.7800 595.0000 1.0000
29.7900 568.0000 1.0000
29.8000 585.0000 1.0000
29.8100 567.0000 1.0000
29.8200 587.0000 1.0000
29.8300 599.0000 1.0000
29.8400 561.0000 1.0000
29.8500 562.0000 1.0000
29.8600 585.0000 1.0000
29.8700 590.0000 1.0000
29.8800 576.0000 1.0000
29.8900 612.0000 1.0000
29.9000 587.0000 1.0000
29.9100 601.0000 1.0000
29.9200 568.0000 1.0000
29.9300 597.0000 1.0000
29.9400 639.0000 1.0000
29.9500 605.0000 1.0000
29.9600 580.0000 1.0000
29.9700 569.0000 1.0000
29.9800 623.0000 1.0000
29.9900 605.0000 1.0000
30.0000 573.0000 1.0000
30.0100 576.0000 1.0000
30.0200 570.0000 1.0000
30.0300 582.0000 1.0000
30.0400 556.0000 1.0000
30.0500 532.0000 1.0000
30.0600 572.0000 1.0000
30.0700 571.0000 1.0000
30.0800 580.0000 1.0000
30.0900 568.0000 1.0000
30.1000 609.0000 1.0000
30.1100 557.0000 1.0000
30.1200 572.0000 1.0000
30.1300 574.0000 1.0000
30.1400 551.0000 1.0000
30.1500 569.0000 1.0000
30.1600 512.0000 1.0000
30.1700 569.0000 1.0000
30.1800 578.0000 1.0000
30.1900 583.0000 1.0000
30.2000 561.0000 1.0000
30.2100 555.0000 1.0000
30.2200 573.0000 1.0000
30.2300 571.0000 1.0000
30.2400 600.0000 1.0000
30.2500 572.0000 1.0000
30.2600 551.0000 1.0000
30.2700 549.0000 1.0000
30.2800 576.0000 1.0000
30.2900 561.0000 1.0000
30.3000 597.0000 1.0000
30.3100 569.0000 1.0000
30.3200 560.0000 1.0000
30.3300 577.0000 1.0000
30.3400 562.0000 1.0000
30.3500 561.0000 1.0000
30.3600 582.0000 1.0000
30.3700 559.0000 1.0000
30.3800 591.0000 1.0000
30.3900 570.0000 1.0000
30.4000 558.0000 1.0000
30.4100 568.0000 1.0000
30.4200 554.0000 1.0000
30.4300 555.0000 1.0000
30.4400 586.0000 1.0000
30.4500 587.0000 1.0000
30.4600 576.0000 1.0000
30.4700 572.0000 1.0000
30.4800 541.0000 1.0000
30.4900 609.0000 1.0000
30.5000 569.0000 1.0000
30.5100 594.0000 1.0000
30.5200 579.0000 1.0000
30.5300 607.0000 1.0000
30.5400 587.0000 1.0000
30.5500 584.0000 1.0000
30.5600 551.0000 1.0000
30.5700 567.0000 1.0000
30.5800 566.0000 1.0000
30.5900 588.0000 1.0000
30.6000 548.0000 1.0000
30.6100 555.0000 1.0000
30.6200 595.0000 1.0000
30.6300 558.0000 1.0000
30.6400 591.0000 1.0000
30.6500 563.0000 1.0000
30.6600 550.0000 1.0000
30.6700 547.0000 1.0000
30.6800 547.0000 1.0000
30.6900 532.0000 1.0000
30.7000 602.0000 1.0000
30.7100 599.0000 1.0000
30.7200 582.0000 1.0000
30.7300 568.0000 1.0000
30.7400 577.0000 1.0000
30.7500 574.0000 1.0000
30.7600 565.0000 1.0000
30.7700 599.0000 1.0000
30.7800 549.0000 1.0000
30.7900 528.0000 1.0000
30.8000 573.0000 1.0000
30.8100 563.0000 1.0000
30.8200 552.0000 1.0000
30.8300 554.0000 1.0000
30.8400 562.0000 1.0000
30.8500 572.0000 1.0000
30.8600 583.0000 1.0000
30.8700 602.0000 1.0000
30.8800 592.0000 1.0000
30.8900 609.0000 1.0000
30.9000 604.0000 1.0000
30.9100 546.0000 1.0000
30.9200 572.0000 1.0000
30.9300 554.0000 1.0000
30.9400 539.0000 1.0000
30.9500 578.0000 1.0000
30.9600 577.0000 1.0000
30.9700 563.0000 1.0000
30.9800 584.0000 1.0000
30.9900 555.0000 1.0000
31.0000 559.0000 1.0000
31.0100 515.0000 1.0000
31.0200 554.0000 1.0000
31.0300 567.0000 1.0000
31.0400 554.0000 1.0000
31.0500 545.0000 1.0000
31.0600 564.0000 1.0000
31.0700 521.0000 1.0000
31.0800 563.0000 1.0000
31.0900 570.0000 1.0000
31.1000 569.0000 1.0000
31.1100 556.0000 1.0000
31.1200 540.0000 1.0000
31.1300 580.0000 1.0000
31.1400 617.0000 1.0000
31.1500 573.0000 1.0000
31.1600 554.0000 1.0000
31.1700 567.0000 1.0000
31.1800 550.0000 1.0000
31.1900 555.0000 1.0000
31.2000 600.0000 1.0000
31.2100 586.0000 1.0000
31.2200 555.0000 1.0000
31.2300 595.0000 1.0000
31.2400 585.0000 1.0000
31.2500 587.0000 1.0000
31.2600 594.0000 1.0000
31.2700 567.0000 1.0000
31.2800 547.0000 1.0000
31.2900 547.0000 1.0000
31.3000 588.0000 1.0000
31.3100 606.0000 1.0000
31.3200 548.0000 1.0000
31.3300 549.0000 1.0000
31.3400 525.0000 1.0000
31.3500 543.0000 1.0000
31.3600 574.0000 1.0000
31.3700 557.0000 1.0000
31.3800 558.0000 1.0000
31.3900 550.0000 1.0000
31.4000 568.0000 1.0000
31.4100 582.0000 1.0000
31.4200 543.0000 1.0000
31.4300 564.0000 1.0000
31.4400 579.0000 1.0000
31.4500 565.0000 1.0000
31.4600 545.0000 1.0000
31.4700 584.0000 1.0000
31.4800 577.0000 1.0000
31.4900 564.0000 1.0000
31.5000 539.0000 1.0000
31.5100 553.0000 1.0000
31.5200 552.0000 1.0000
31.5300 578.0000 1.0000
31.5400 552.0000 1.0000
31.5500 593.0000 1.0000
31.5600 549.0000 1.0000
31.5700 554.0000 1.0000
31.5800 549.0000 1.0000
31.5900 542.0000 1.0000
31.6000 574.0000 1.0000
31.6100 545.0000 1.0000
31.6200 533.0000 1.0000
31.6300 512.0000 1.0000
31.6400 510.0000 1.0000
31.6500 552.0000 1.0000
31.6600 551.0000 1.0000
31.6700 541.0000 1.0000
31.6800 551.0000 1.0000
31.6900 562.0000 1.0000
31.7000 573.0000 1.0000
31.7100 565.0000 1.0000
31.7200 576.0000 1.0000
31.7300 598.0000 1.0000
31.7400 553.0000 1.0000
31.7500 560.0000 1.0000
31.7600 585.0000 1.0000
31.7700 569.0000 1.0000
31.7800 537.0000 1.0000
31.7900 527.0000 1.0000
31.8000 550.0000 1.0000
31.8100 534.0000 1.0000
31.8200 532.0000 1.0000
31.8300 544.0000 1.0000
31.8400 532.0000 1.0000
31.8500 559.0000 1.0000
31.8600 546.0000 1.0000
31.8700 542.0000 1.0000
31.8800 554.0000 1.0000
31.8900 588.0000 1.0000
31.9000 541.0000 1.0000
31.9100 579.0000 1.0000
31.9200 566.0000 1.0000
31.9300 546.0000 1.0000
31.9400 548.0000 1.0000
31.9500 552.0000 1.0000
31.9600 557.0000 1.0000
31.9700 574.0000 1.0000
31.9800 572.0000 1.0000
31.9900 567.0000 1.0000
32.0000 556.0000 1.0000
32.0100 593.0000 1.0000
32.0200 554.0000 1.0000
32.0300 582.0000 1.0000
32.0400 582.0000 1.0000
32.0500 549.0000 1.0000
32.0600 529.0000 1.0000
32.0700 562.0000 1.0000
32.0800 561.0000 1.0000
32.0900 540.0000 1.0000
32.1000 572.0000 1.0000
32.1100 520.0000 1.0000
32.1200 584.0000 1.0000
32.1300 568.0000 1.0000
32.1400 567.0000 1.0000
32.1500 537.0000 1.0000
32.1600 559.0000 1.0000
32.1700 571.0000 1.0000
32.1800 533.0000 1.0000
32.1900 568.0000 1.0000
32.2000 534.0000 1.0000
32.2100 542.0000 1.0000
32.2200 542.0000 1.0000
32.2300 553.0000 1.0000
32.2400 552.0000 1.0000
32.2500 549.0000 1.0000
32.2600 578.0000 1.0000
32.2700 575.0000 1.0000
32.2800 540.0000 1.0000
32.2900 519.0000 1.0000
32.3000 544.0000 1.0000
32.3100 553.0000 1.0000
32.3200 540.0000 1.0000
32.3300 545.0000 1.0000
32.3400 548.0000 1.0000
32.3500 543.0000 1.0000
32.3600 525.0000 1.0000
32.3700 511.0000 1.0000
32.3800 565.0000 1.0000
32.3900 555.0000 1.0000
32.4000 560.0000 1.0000
32.4100 539.0000 1.0000
32.4200 546.0000 1.0000
32.4300 524.0000 1.0000
32.4400 542.0000 1.0000
32.4500 517.0000 1.0000
32.4600 545.0000 1.0000
32.4700 547.0000 1.0000
32.4800 559.0000 1.0000
32.4900 569.0000 1.0000
32.5000 575.0000 1.0000
32.5100 544.0000 1.0000
32.5200 526.0000 1.0000
32.5300 507.0000 1.0000
32.5400 530.0000 1.0000
32.5500 569.0000 1.0000
32.5600 571.0000 1.0000
32.5700 556.0000 1.0000
32.5800 552.0000 1.0000
32.5900 550.0000 1.0000
32.6000 565.0000 1.0000
32.6100 519.0000 1.0000
32.6200 551.0000 1.0000
32.6300 562.0000 1.0000
32.6400 551.0000 1.0000
32.6500 530.0000 1.0000
32.6600 553.0000 1.0000
32.6700 531.0000 1.0000
32.6800 541.0000 1.0000
32.6900 524.0000 1.0000
32.7000 544.0000 1.0000
32.7100 516.0000 1.0000
32.7200 515.0000 1.0000
32.7300 557.0000 1.0000
32.7400 555.0000 1.0000
32.7500 544.0000 1.0000
32.7600 555.0000 1.0000
32.7700 547.0000 1.0000
32.7800 515.0000 1.0000
32.7900 542.0000 1.0000
32.8000 528.0000 1.0000
32.8100 536.0000 1.0000
32.8200 495.0000 1.0000
32.8300 537.0000 1.0000
32.8400 526.0000 1.0000
32.8500 540.0000 1.0000
32.8600 549.0000 1.0000
32.8700 547.0000 1.0000
32.8800 510.0000 1.0000
32.8900 560.0000 1.0000
32.9000 510.0000 1.0000
32.9100 522.0000 1.0000
32.9200 553.0000 1.0000
32.9300 536.0000 1.0000
32.9400 580.0000 1.0000
32.9500 517.0000 1.0000
32.9600 501.0000 1.0000
32.9700 565.0000 1.0000
32.9800 538.0000 1.0000
32.9900 525.0000 1.0000
33.0000 535.0000 1.0000
33.0100 532.0000 1.0000
33.0200 529.0000 1.0000
33.0300 547.0000 1.0000
33.0400 543.0000 1.0000
33.0500 492.0000 1.0000
33.0600 500.0000 1.0000
33.0700 517.0000 1.0000
33.0800 555.0000 1.0000
33.0900 518.0000 1.0000
33.1000 561.0000 1.0000
33.1100 534.0000 1.0000
33.1200 512.0000 1.0000
33.1300 532.0000 1.0000
33.1400 561.0000 1.0000
33.1500 512.0000 1.0000
33.1600 519.0000 1.0000
33.1700 490.0000 1.0000
33.1800 507.0000 1.0000
33.1900 544.0000 1.0000
33.2000 521.0000 1.0000
33.2100 525.0000 1.0000
33.2200 508.0000 1.0000
33.2300 562.0000 1.0000
33.2400 540.0000 1.0000
33.2500 506.0000 1.0000
33.2600 537.0000 1.0000
33.2700 526.0000 1.0000
33.2800 512.0000 1.0000
33.2900 522.0000 1.0000
33.3000 523.0000 1.0000
33.3100 524.0000 1.0000
33.3200 494.0000 1.0000
33.3300 541.0000 1.0000
33.3400 513.0000 1.0000
33.3500 540.0000 1.0000
33.3600 508.0000 1.0000
33.3700 554.0000 1.0000
33.3800 483.0000 1.0000
33.3900 532.0000 1.0000
33.4000 524.0000 1.0000
33.4100 548.0000 1.0000
33.4200 534.0000 1.0000
33.4300 529.0000 1.0000
33.4400 479.0000 1.0000
33.4500 491.0000 1.0000
33.4600 527.0000 1.0000
33.4700 567.0000 1.0000
33.4800 523.0000 1.0000
33.4900 529.0000 1.0000
33.5000 491.0000 1.0000
33.5100 542.0000 1.0000
33.5200 525.0000 1.0000
33.5300 538.0000 1.0000
33.5400 494.0000 1.0000
33.5500 507.0000 1.0000
33.5600 475.0000 1.0000
33.5700 536.0000 1.0000
33.5800 522.0000 1.0000
33.5900 540.0000 1.0000
33.6000 573.0000 1.0000
33.6100 541.0000 1.0000
33.6200 530.0000 1.0000
33.6300 496.0000 1.0000
33.6400 514.0000 1.0000
33.6500 518.0000 1.0000
33.6600 536.0000 1.0000
33.6700 551.0000 1.0000
33.6800 579.0000 1.0000
33.6900 527.0000 1.0000
33.7000 531.0000 1.0000
33.7100 519.0000 1.0000
33.7200 528.0000 1.0000
33.7300 536.0000 1.0000
33.7400 512.0000 1.0000
33.7500 514.0000 1.0000
33.7600 550.0000 1.0000
33.7700 538.0000 1.0000
33.7800 538.0000 1.0000
33.7900 561.0000 1.0000
33.8000 591.0000 1.0000
33.8100 535.0000 1.0000
33.8200 584.0000 1.0000
33.8300 549.0000 1.0000
33.8400 538.0000 1.0000
33.8500 570.0000 1.0000
33.8600 557.0000 1.0000
33.8700 587.0000 1.0000
33.8800 564.0000 1.0000
33.8900 594.0000 1.0000
33.9000 583.0000 1.0000
33.9100 595.0000 1.0000
33.9200 587.0000 1.0000
33.9300 601.0000 1.0000
33.9400 620.0000 1.0000
33.9500 567.0000 1.0000
33.9600 592.0000 1.0000
33.9700 570.0000 1.0000
33.9800 636.0000 1.0000
33.9900 607.0000 1.0000
34.0000 575.0000 1.0000
34.0100 581.0000 1.0000
34.0200 555.0000 1.0000
34.0300 577.0000 1.0000
34.0400 607.0000 1.0000
34.0500 574.0000 1.0000
34.0600 557.0000 1.0000
34.0700 571.0000 1.0000
34.0800 602.0000 1.0000
34.0900 605.0000 1.0000
34.1000 617.0000 1.0000
34.1100 591.0000 1.0000
34.1200 620.0000 1.0000
34.1300 586.0000 1.0000
34.1400 608.0000 1.0000
34.1500 608.0000 1.0000
34.1600 595.0000 1.0000
34.1700 582.0000 1.0000
34.1800 609.0000 1.0000
34.1900 610.0000 1.0000
34.2000 580.0000 1.0000
34.2100 607.0000 1.0000
34.2200 603.0000 1.0000
34.2300 620.0000 1.0000
34.2400 641.0000 1.0000
34.2500 636.0000 1.0000
34.2600 617.0000 1.0000
34.2700 637.0000 1.0000
34.2800 683.0000 1.0000
34.2900 700.0000 1.0000
34.3000 631.0000 1.0000
34.3100 700.0000 1.0000
34.3200 744.0000 1.0000
34.3300 776.0000 1.0000
34.3400 804.0000 1.0000
34.3500 794.0000 1.0000
34.3600 843.0000 1.0000
34.3700 905.0000 1.0000
34.3800 901.0000 1.0000
34.3900 965.0000 1.0000
34.4000 951.0000 1.0000
34.4100 1038.0000 1.0000
34.4200 1019.0000 1.0000
34.4300 1018.0000 1.0000
34.4400 1086.0000 1.0000
34.4500 1176.0000 1.0000
34.4600 1248.0000 1.0000
34.4700 1287.0000 1.0000
34.4800 1348.0000 1.0000
34.4900 1345.0000 1.0000
34.5000 1371.0000 1.0000
34.5100 1376.0000 1.0000
34.5200 1248.0000 1.0000
34.5300 1335.0000 1.0000
34.5400 1383.0000 1.0000
34.5500 1299.0000 1.0000
34.5600 1245.0000 1.0000
34.5700 1199.0000 1.0000
34.5800 1173.0000 1.0000
34.5900 1175.0000 1.0000
34.6000 1132.0000 1.0000
34.6100 1057.0000 1.0000
34.6200 996.0000 1.0000
34.6300 964.0000 1.0000
34.6400 962.0000 1.0000
34.6500 895.0000 1.0000
34.6600 853.0000 1.0000
34.6700 892.0000 1.0000
34.6800 829.0000 1.0000
34.6900 800.0000 1.0000
34.7000 784.0000 1.0000
34.7100 747.0000 1.0000
34.7200 723.0000 1.0000
34.7300 728.0000 1.0000
34.7400 696.0000 1.0000
34.7500 684.0000 1.0000
34.7600 630.0000 1.0000
34.7700 676.0000 1.0000
34.7800 652.0000 1.0000
34.7900 652.0000 1.0000
34.8000 645.0000 1.0000
34.8100 642.0000 1.0000
34.8200 634.0000 1.0000
34.8300 604.0000 1.0000
34.8400 607.0000 1.0000
34.8500 628.0000 1.0000
34.8600 571.0000 1.0000
34.8700 606.0000 1.0000
34.8800 563.0000 1.0000
34.8900 555.0000 1.0000
34.9000 585.0000 1.0000
34.9100 535.0000 1.0000
34.9200 545.0000 1.0000
34.9300 532.0000 1.0000
34.9400 533.0000 1.0000
34.9500 516.0000 1.0000
34.9600 525.0000 1.0000
34.9700 546.0000 1.0000
34.9800 523.0000 1.0000
34.9900 520.0000 1.0000
35.0000 522.0000 1.0000
35.0100 562.0000 1.0000
35.0200 517.0000 1.0000
35.0300 497.0000 1.0000
35.0400 486.0000 1.0000
35.0500 518.0000 1.0000
35.0600 510.0000 1.0000
35.0700 551.0000 1.0000
35.0800 503.0000 1.0000
35.0900 491.0000 1.0000
35.1000 511.0000 1.0000
35.1100 511.0000 1.0000
35.1200 507.0000 1.0000
35.1300 475.0000 1.0000
35.1400 487.0000 1.0000
35.1500 496.0000 1.0000
35.1600 497.0000 1.0000
35.1700 498.0000 1.0000
35.1800 509.0000 1.0000
35.1900 495.0000 1.0000
35.2000 509.0000 1.0000
35.2100 496.0000 1.0000
35.2200 478.0000 1.0000
35.2300 487.0000 1.0000
35.2400 468.0000 1.0000
35.2500 449.0000 1.0000
35.2600 489.0000 1.0000
35.2700 482.0000 1.0000
35.2800 477.0000 1.0000
35.2900 490.0000 1.0000
35.3000 476.0000 1.0000
35.3100 488.0000 1.0000
35.3200 459.0000 1.0000
35.3300 470.0000 1.0000
35.3400 462.0000 1.0000
35.3500 497.0000 1.0000
35.3600 493.0000 1.0000
35.3700 443.0000 1.0000
35.3800 466.0000 1.0000
35.3900 508.0000 1.0000
35.4000 480.0000 1.0000
35.4100 492.0000 1.0000
35.4200 489.0000 1.0000
35.4300 433.0000 1.0000
35.4400 471.0000 1.0000
35.4500 478.0000 1.0000
35.4600 460.0000 1.0000
35.4700 473.0000 1.0000
35.4800 487.0000 1.0000
35.4900 470.0000 1.0000
35.5000 495.0000 1.0000
35.5100 483.0000 1.0000
35.5200 437.0000 1.0000
35.5300 440.0000 1.0000
35.5400 438.0000 1.0000
35.5500 501.0000 1.0000
35.5600 480.0000 1.0000
35.5700 477.0000 1.0000
35.5800 478.0000 1.0000
35.5900 456.0000 1.0000
35.6000 426.0000 1.0000
35.6100 459.0000 1.0000
35.6200 446.0000 1.0000
35.6300 448.0000 1.0000
35.6400 454.0000 1.0000
35.6500 479.0000 1.0000
35.6600 449.0000 1.0000
35.6700 448.0000 1.0000
35.6800 417.0000 1.0000
35.6900 460.0000 1.0000
35.7000 431.0000 1.0000
35.7100 478.0000 1.0000
35.7200 472.0000 1.0000
35.7300 503.0000 1.0000
35.7400 454.0000 1.0000
35.7500 457.0000 1.0000
35.7600 439.0000 1.0000
35.7700 457.0000 1.0000
35.7800 457.0000 1.0000
35.7900 447.0000 1.0000
35.8000 467.0000 1.0000
35.8100 477.0000 1.0000
35.8200 469.0000 1.0000
35.8300 472.0000 1.0000
35.8400 465.0000 1.0000
35.8500 471.0000 1.0000
35.8600 462.0000 1.0000
35.8700 427.0000 1.0000
35.8800 463.0000 1.0000
35.8900 427.0000 1.0000
35.9000 451.0000 1.0000
35.9100 454.0000 1.0000
35.9200 447.0000 1.0000
35.9300 467.0000 1.0000
35.9400 427.0000 1.0000
35.9500 401.0000 1.0000
35.9600 422.0000 1.0000
35.9700 432.0000 1.0000
35.9800 453.0000 1.0000
35.9900 438.0000 1.0000
36.0000 455.0000 1.0000
36.0100 448.0000 1.0000
36.0200 473.0000 1.0000
36.0300 479.0000 1.0000
36.0400 444.0000 1.0000
36.0500 462.0000 1.0000
36.0600 515.0000 1.0000
36.0700 494.0000 1.0000
36.0800 486.0000 1.0000
36.0900 460.0000 1.0000
36.1000 431.0000 1.0000
36.1100 473.0000 1.0000
36.1200 452.0000 1.0000
36.1300 494.0000 1.0000
36.1400 505.0000 1.0000
36.1500 505.0000 1.0000
36.1600 511.0000 1.0000
36.1700 465.0000 1.0000
36.1800 469.0000 1.0000
36.1900 510.0000 1.0000
36.2000 499.0000 1.0000
36.2100 505.0000 1.0000
36.2200 511.0000 1.0000
36.2300 484.0000 1.0000
36.2400 484.0000 1.0000
36.2500 520.0000 1.0000
36.2600 537.0000 1.0000
36.2700 572.0000 1.0000
36.2800 554.0000 1.0000
36.2900 566.0000 1.0000
36.3000 589.0000 1.0000
36.3100 568.0000 1.0000
36.3200 595.0000 1.0000
36.3300 622.0000 1.0000
36.3400 618.0000 1.0000
36.3500 645.0000 1.0000
36.3600 650.0000 1.0000
36.3700 701.0000 1.0000
36.3800 700.0000 1.0000
36.3900 708.0000 1.0000
36.4000 761.0000 1.0000
36.4100 751.0000 1.0000
36.4200 741.0000 1.0000
36.4300 773.0000 1.0000
36.4400 740.0000 1.0000
36.4500 768.0000 1.0000
36.4600 714.0000 1.0000
36.4700 715.0000 1.0000
36.4800 679.0000 1.0000
36.4900 728.0000 1.0000
36.5000 719.0000 1.0000
36.5100 671.0000 1.0000
36.5200 698.0000 1.0000
36.5300 665.0000 1.0000
36.5400 620.0000 1.0000
36.5500 603.0000 1.0000
36.5600 601.0000 1.0000
36.5700 539.0000 1.0000
36.5800 549.0000 1.0000
36.5900 559.0000 1.0000
36.6000 525.0000 1.0000
36.6100 567.0000 1.0000
36.6200 493.0000 1.0000
36.6300 462.0000 1.0000
36.6400 482.0000 1.0000
36.6500 476.0000 1.0000
36.6600 511.0000 1.0000
36.6700 500.0000 1.0000
36.6800 503.0000 1.0000
36.6900 474.0000 1.0000
36.7000 456.0000 1.0000
36.7100 497.0000 1.0000
36.7200 486.0000 1.0000
36.7300 433.0000 1.0000
36.7400 443.0000 1.0000
36.7500 460.0000 1.0000
36.7600 462.0000 1.0000
36.7700 443.0000 1.0000
36.7800 446.0000 1.0000
36.7900 471.0000 1.0000
36.8000 476.0000 1.0000
36.8100 429.0000 1.0000
36.8200 434.0000 1.0000
36.8300 421.0000 1.0000
36.8400 448.0000 1.0000
36.8500 433.0000 1.0000
36.8600 423.0000 1.0000
36.8700 460.0000 1.0000
36.8800 420.0000 1.0000
36.8900 436.0000 1.0000
36.9000 440.0000 1.0000
36.9100 449.0000 1.0000
36.9200 409.0000 1.0000
36.9300 432.0000 1.0000
36.9400 429.0000 1.0000
36.9500 425.0000 1.0000
36.9600 416.0000 1.0000
36.9700 433.0000 1.0000
36.9800 430.0000 1.0000
36.9900 451.0000 1.0000
37.0000 410.0000 1.0000
37.0100 401.0000 1.0000
37.0200 427.0000 1.0000
37.0300 448.0000 1.0000
37.0400 402.0000 1.0000
37.0500 434.0000 1.0000
37.0600 428.0000 1.0000
37.0700 463.0000 1.0000
37.0800 411.0000 1.0000
37.0900 429.0000 1.0000
37.1000 432.0000 1.0000
37.1100 390.0000 1.0000
37.1200 384.0000 1.0000
37.1300 434.0000 1.0000
37.1400 441.0000 1.0000
37.1500 392.0000 1.0000
37.1600 448.0000 1.0000
37.1700 417.0000 1.0000
37.1800 413.0000 1.0000
37.1900 421.0000 1.0000
37.2000 414.0000 1.0000
37.2100 427.0000 1.0000
37.2200 391.0000 1.0000
37.2300 423.0000 1.0000
37.2400 426.0000 1.0000
37.2500 429.0000 1.0000
37.2600 399.0000 1.0000
37.2700 440.0000 1.0000
37.2800 405.0000 1.0000
37.2900 414.0000 1.0000
37.3000 410.0000 1.0000
37.3100 438.0000 1.0000
37.3200 430.0000 1.0000
37.3300 418.0000 1.0000
37.3400 417.0000 1.0000
37.3500 413.0000 1.0000
37.3600 396.0000 1.0000
37.3700 440.0000 1.0000
37.3800 453.0000 1.0000
37.3900 426.0000 1.0000
37.4000 412.0000 1.0000
37.4100 413.0000 1.0000
37.4200 432.0000 1.0000
37.4300 433.0000 1.0000
37.4400 421.0000 1.0000
37.4500 383.0000 1.0000
37.4600 407.0000 1.0000
37.4700 422.0000 1.0000
37.4800 422.0000 1.0000
37.4900 421.0000 1.0000
37.5000 418.0000 1.0000
37.5100 433.0000 1.0000
37.5200 410.0000 1.0000
37.5300 391.0000 1.0000
37.5400 384.0000 1.0000
37.5500 391.0000 1.0000
37.5600 393.0000 1.0000
37.5700 410.0000 1.0000
37.5800 397.0000 1.0000
37.5900 414.0000 1.0000
37.6000 457.0000 1.0000
37.6100 439.0000 1.0000
37.6200 393.0000 1.0000
37.6300 420.0000 1.0000
37.6400 400.0000 1.0000
37.6500 405.0000 1.0000
37.6600 413.0000 1.0000
37.6700 403.0000 1.0000
37.6800 397.0000 1.0000
37.6900 421.0000 1.0000
37.7000 405.0000 1.0000
37.7100 410.0000 1.0000
37.7200 437.0000 1.0000
37.7300 423.0000 1.0000
37.7400 424.0000 1.0000
37.7500 416.0000 1.0000
37.7600 441.0000 1.0000
37.7700 427.0000 1.0000
37.7800 402.0000 1.0000
37.7900 418.0000 1.0000
37.8000 429.0000 1.0000
37.8100 423.0000 1.0000
37.8200 416.0000 1.0000
37.8300 414.0000 1.0000
37.8400 377.0000 1.0000
37.8500 412.0000 1.0000
37.8600 433.0000 1.0000
37.8700 404.0000 1.0000
37.8800 396.0000 1.0000
37.8900 421.0000 1.0000
37.9000 442.0000 1.0000
37.9100 427.0000 1.0000
37.9200 450.0000 1.0000
37.9300 409.0000 1.0000
37.9400 428.0000 1.0000
37.9500 424.0000 1.0000
37.9600 410.0000 1.0000
37.9700 428.0000 1.0000
37.9800 431.0000 1.0000
37.9900 440.0000 1.0000
38.0000 455.0000 1.0000
38.0100 429.0000 1.0000
38.0200 432.0000 1.0000
38.0300 443.0000 1.0000
38.0400 441.0000 1.0000
38.0500 489.0000 1.0000
38.0600 471.0000 1.0000
38.0700 477.0000 1.0000
38.0800 466.0000 1.0000
38.0900 456.0000 1.0000
38.1000 456.0000 1.0000
38.1100 462.0000 1.0000
38.1200 462.0000 1.0000
38.1300 494.0000 1.0000
38.1400 487.0000 1.0000
38.1500 496.0000 1.0000
38.1600 486.0000 1.0000
38.1700 507.0000 1.0000
38.1800 511.0000 1.0000
38.1900 527.0000 1.0000
38.2000 511.0000 1.0000
38.2100 500.0000 1.0000
38.2200 562.0000 1.0000
38.2300 550.0000 1.0000
38.2400 542.0000 1.0000
38.2500 591.0000 1.0000
38.2600 645.0000 1.0000
38.2700 603.0000 1.0000
38.2800 601.0000 1.0000
38.2900 710.0000 1.0000
38.3000 716.0000 1.0000
38.3100 706.0000 1.0000
38.3200 780.0000 1.0000
38.3300 821.0000 1.0000
38.3400 795.0000 1.0000
38.3500 826.0000 1.0000
38.3600 916.0000 1.0000
38.3700 912.0000 1.0000
38.3800 989.0000 1.0000
38.3900 1033.0000 1.0000
38.4000 1106.0000 1.0000
38.4100 1160.0000 1.0000
38.4200 1283.0000 1.0000
38.4300 1374.0000 1.0000
38.4400 1408.0000 1.0000
38.4500 1565.0000 1.0000
38.4600 1601.0000 1.0000
38.4700 1709.0000 1.0000
38.4800 1880.0000 1.0000
38.4900 2110.0000 1.0000
38.5000 2146.0000 1.0000
38.5100 2055.0000 1.0000
38.5200 2272.0000 1.0000
38.5300 2248.0000 1.0000
38.5400 2385.0000 1.0000
38.5500 2379.0000 1.0000
38.5600 2386.0000 1.0000
38.5700 2457.0000 1.0000
38.5800 2297.0000 1.0000
38.5900 2257.0000 1.0000
38.6000 2186.0000 1.0000
38.6100 2165.0000 1.0000
38.6200 2066.0000 1.0000
38.6300 1995.0000 1.0000
38.6400 1930.0000 1.0000
38.6500 1856.0000 1.0000
38.6600 1749.0000 1.0000
38.6700 1662.0000 1.0000
38.6800 1568.0000 1.0000
38.6900 1467.0000 1.0000
38.7000 1356.0000 1.0000
38.7100 1280.0000 1.0000
38.7200 1246.0000 1.0000
38.7300 1133.0000 1.0000
38.7400 1059.0000 1.0000
38.7500 1036.0000 1.0000
38.7600 948.0000 1.0000
38.7700 904.0000 1.0000
38.7800 861.0000 1.0000
38.7900 748.0000 1.0000
38.8000 733.0000 1.0000
38.8100 729.0000 1.0000
38.8200 679.0000 1.0000
38.8300 615.0000 1.0000
38.8400 653.0000 1.0000
38.8500 588.0000 1.0000
38.8600 610.0000 1.0000
38.8700 566.0000 1.0000
38.8800 599.0000 1.0000
38.8900 567.0000 1.0000
38.9000 546.0000 1.0000
38.9100 524.0000 1.0000
38.9200 532.0000 1.0000
38.9300 518.0000 1.0000
38.9400 476.0000 1.0000
38.9500 451.0000 1.0000
38.9600 491.0000 1.0000
38.9700 438.0000 1.0000
38.9800 442.0000 1.0000
38.9900 441.0000 1.0000
39.0000 446.0000 1.0000
39.0100 444.0000 1.0000
39.0200 437.0000 1.0000
39.0300 428.0000 1.0000
39.0400 427.0000 1.0000
39.0500 445.0000 1.0000
39.0600 429.0000 1.0000
39.0700 402.0000 1.0000
39.0800 414.0000 1.0000
39.0900 406.0000 1.0000
39.1000 421.0000 1.0000
39.1100 389.0000 1.0000
39.1200 413.0000 1.0000
39.1300 404.0000 1.0000
39.1400 406.0000 1.0000
39.1500 417.0000 1.0000
39.1600 413.0000 1.0000
39.1700 407.0000 1.0000
39.1800 398.0000 1.0000
39.1900 394.0000 1.0000
39.2000 374.0000 1.0000
39.2100 407.0000 1.0000
39.2200 420.0000 1.0000
39.2300 396.0000 1.0000
39.2400 365.0000 1.0000
39.2500 387.0000 1.0000
39.2600 393.0000 1.0000
39.2700 394.0000 1.0000
39.2800 385.0000 1.0000
39.2900 396.0000 1.0000
39.3000 399.0000 1.0000
39.3100 359.0000 1.0000
39.3200 370.0000 1.0000
39.3300 374.0000 1.0000
39.3400 390.0000 1.0000
39.3500 385.0000 1.0000
39.3600 409.0000 1.0000
39.3700 372.0000 1.0000
39.3800 374.0000 1.0000
39.3900 429.0000 1.0000
39.4000 398.0000 1.0000
39.4100 361.0000 1.0000
39.4200 390.0000 1.0000
39.4300 393.0000 1.0000
39.4400 376.0000 1.0000
39.4500 367.0000 1.0000
39.4600 391.0000 1.0000
39.4700 358.0000 1.0000
39.4800 391.0000 1.0000
39.4900 401.0000 1.0000
39.5000 387.0000 1.0000
39.5100 342.0000 1.0000
39.5200 374.0000 1.0000
39.5300 393.0000 1.0000
39.5400 391.0000 1.0000
39.5500 406.0000 1.0000
39.5600 395.0000 1.0000
39.5700 388.0000 1.0000
39.5800 392.0000 1.0000
39.5900 418.0000 1.0000
39.6000 392.0000 1.0000
39.6100 376.0000 1.0000
39.6200 401.0000 1.0000
39.6300 390.0000 1.0000
39.6400 408.0000 1.0000
39.6500 398.0000 1.0000
39.6600 381.0000 1.0000
39.6700 420.0000 1.0000
39.6800 401.0000 1.0000
39.6900 371.0000 1.0000
39.7000 395.0000 1.0000
39.7100 379.0000 1.0000
39.7200 395.0000 1.0000
39.7300 373.0000 1.0000
39.7400 393.0000 1.0000
39.7500 372.0000 1.0000
39.7600 345.0000 1.0000
39.7700 362.0000 1.0000
39.7800 368.0000 1.0000
39.7900 389.0000 1.0000
39.8000 368.0000 1.0000
39.8100 373.0000 1.0000
39.8200 355.0000 1.0000
39.8300 349.0000 1.0000
39.8400 352.0000 1.0000
39.8500 359.0000 1.0000
39.8600 395.0000 1.0000
39.8700 376.0000 1.0000
39.8800 374.0000 1.0000
39.8900 415.0000 1.0000
39.9000 397.0000 1.0000
39.9100 389.0000 1.0000
39.9200 363.0000 1.0000
39.9300 380.0000 1.0000
39.9400 375.0000 1.0000
39.9500 358.0000 1.0000
39.9600 345.0000 1.0000
39.9700 331.0000 1.0000
39.9800 357.0000 1.0000
39.9900 354.0000 1.0000
40.0000 348.0000 1.0000
40.0100 339.0000 1.0000
40.0200 370.0000 1.0000
40.0300 351.0000 1.0000
40.0400 376.0000 1.0000
40.0500 392.0000 1.0000
40.0600 361.0000 1.0000
40.0700 380.0000 1.0000
40.0800 369.0000 1.0000
40.0900 392.0000 1.0000
40.1000 389.0000 1.0000
40.1100 371.0000 1.0000
40.1200 377.0000 1.0000
40.1300 367.0000 1.0000
40.1400 346.0000 1.0000
40.1500 352.0000 1.0000
40.1600 347.0000 1.0000
40.1700 366.0000 1.0000
40.1800 340.0000 1.0000
40.1900 350.0000 1.0000
40.2000 372.0000 1.0000
40.2100 350.0000 1.0000
40.2200 339.0000 1.0000
40.2300 356.0000 1.0000
40.2400 368.0000 1.0000
40.2500 366.0000 1.0000
40.2600 364.0000 1.0000
40.2700 332.0000 1.0000
40.2800 338.0000 1.0000
40.2900 358.0000 1.0000
40.3000 330.0000 1.0000
40.3100 359.0000 1.0000
40.3200 353.0000 1.0000
40.3300 371.0000 1.0000
40.3400 347.0000 1.0000
40.3500 357.0000 1.0000
40.3600 340.0000 1.0000
40.3700 342.0000 1.0000
40.3800 354.0000 1.0000
40.3900 348.0000 1.0000
40.4000 384.0000 1.0000
40.4100 367.0000 1.0000
40.4200 352.0000 1.0000
40.4300 327.0000 1.0000
40.4400 332.0000 1.0000
40.4500 347.0000 1.0000
40.4600 336.0000 1.0000
40.4700 320.0000 1.0000
40.4800 318.0000 1.0000
40.4900 353.0000 1.0000
40.5000 345.0000 1.0000
40.5100 328.0000 1.0000
40.5200 339.0000 1.0000
40.5300 364.0000 1.0000
40.5400 352.0000 1.0000
40.5500 359.0000 1.0000
40.5600 368.0000 1.0000
40.5700 336.0000 1.0000
40.5800 324.0000 1.0000
40.5900 360.0000 1.0000
40.6000 362.0000 1.0000
40.6100 336.0000 1.0000
40.6200 363.0000 1.0000
40.6300 344.0000 1.0000
40.6400 354.0000 1.0000
40.6500 361.0000 1.0000
40.6600 338.0000 1.0000
40.6700 369.0000 1.0000
40.6800 337.0000 1.0000
40.6900 338.0000 1.0000
40.7000 344.0000 1.0000
40.7100 347.0000 1.0000
40.7200 362.0000 1.0000
40.7300 366.0000 1.0000
40.7400 347.0000 1.0000
40.7500 351.0000 1.0000
40.7600 352.0000 1.0000
40.7700 324.0000 1.0000
40.7800 328.0000 1.0000
40.7900 331.0000 1.0000
40.8000 351.0000 1.0000
40.8100 325.0000 1.0000
40.8200 359.0000 1.0000
40.8300 329.0000 1.0000
40.8400 338.0000 1.0000
40.8500 321.0000 1.0000
40.8600 384.0000 1.0000
40.8700 299.0000 1.0000
40.8800 358.0000 1.0000
40.8900 318.0000 1.0000
40.9000 332.0000 1.0000
40.9100 340.0000 1.0000
40.9200 349.0000 1.0000
40.9300 385.0000 1.0000
40.9400 352.0000 1.0000
40.9500 334.0000 1.0000
40.9600 348.0000 1.0000
40.9700 337.0000 1.0000
40.9800 353.0000 1.0000
40.9900 357.0000 1.0000
41.0000 376.0000 1.0000
41.0100 397.0000 1.0000
41.0200 361.0000 1.0000
41.0300 311.0000 1.0000
41.0400 334.0000 1.0000
41.0500 341.0000 1.0000
41.0600 330.0000 1.0000
41.0700 322.0000 1.0000
41.0800 317.0000 1.0000
41.0900 334.0000 1.0000
41.1000 353.0000 1.0000
41.1100 340.0000 1.0000
41.1200 323.0000 1.0000
41.1300 346.0000 1.0000
41.1400 322.0000 1.0000
41.1500 310.0000 1.0000
41.1600 339.0000 1.0000
41.1700 329.0000 1.0000
41.1800 348.0000 1.0000
41.1900 328.0000 1.0000
41.2000 351.0000 1.0000
41.2100 310.0000 1.0000
41.2200 373.0000 1.0000
41.2300 325.0000 1.0000
41.2400 334.0000 1.0000
41.2500 353.0000 1.0000
41.2600 344.0000 1.0000
41.2700 338.0000 1.0000
41.2800 328.0000 1.0000
41.2900 335.0000 1.0000
41.3000 349.0000 1.0000
41.3100 333.0000 1.0000
41.3200 319.0000 1.0000
41.3300 333.0000 1.0000
41.3400 333.0000 1.0000
41.3500 345.0000 1.0000
41.3600 341.0000 1.0000
41.3700 319.0000 1.0000
41.3800 319.0000 1.0000
41.3900 353.0000 1.0000
41.4000 331.0000 1.0000
41.4100 326.0000 1.0000
41.4200 350.0000 1.0000
41.4300 355.0000 1.0000
41.4400 342.0000 1.0000
41.4500 332.0000 1.0000
41.4600 331.0000 1.0000
41.4700 361.0000 1.0000
41.4800 336.0000 1.0000
41.4900 348.0000 1.0000
41.5000 353.0000 1.0000
41.5100 340.0000 1.0000
41.5200 350.0000 1.0000
41.5300 320.0000 1.0000
41.5400 354.0000 1.0000
41.5500 349.0000 1.0000
41.5600 360.0000 1.0000
41.5700 359.0000 1.0000
41.5800 330.0000 1.0000
41.5900 356.0000 1.0000
41.6000 330.0000 1.0000
41.6100 348.0000 1.0000
41.6200 326.0000 1.0000
41.6300 349.0000 1.0000
41.6400 330.0000 1.0000
41.6500 351.0000 1.0000
41.6600 345.0000 1.0000
41.6700 363.0000 1.0000
41.6800 367.0000 1.0000
41.6900 336.0000 1.0000
41.7000 325.0000 1.0000
41.7100 373.0000 1.0000
41.7200 380.0000 1.0000
41.7300 364.0000 1.0000
41.7400 374.0000 1.0000
41.7500 370.0000 1.0000
41.7600 369.0000 1.0000
41.7700 340.0000 1.0000
41.7800 330.0000 1.0000
41.7900 336.0000 1.0000
41.8000 366.0000 1.0000
41.8100 340.0000 1.0000
41.8200 324.0000 1.0000
41.8300 335.0000 1.0000
41.8400 312.0000 1.0000
41.8500 340.0000 1.0000
41.8600 318.0000 1.0000
41.8700 298.0000 1.0000
41.8800 315.0000 1.0000
41.8900 322.0000 1.0000
41.9000 342.0000 1.0000
41.9100 343.0000 1.0000
41.9200 324.0000 1.0000
41.9300 322.0000 1.0000
41.9400 361.0000 1.0000
41.9500 329.0000 1.0000
41.9600 348.0000 1.0000
41.9700 329.0000 1.0000
41.9800 352.0000 1.0000
41.9900 347.0000 1.0000
42.0000 345.0000 1.0000
42.0100 328.0000 1.0000
42.0200 340.0000 1.0000
42.0300 348.0000 1.0000
42.0400 343.0000 1.0000
42.0500 334.0000 1.0000
42.0600 324.0000 1.0000
42.0700 346.0000 1.0000
42.0800 334.0000 1.0000
42.0900 322.0000 1.0000
42.1000 348.0000 1.0000
42.1100 331.0000 1.0000
42.1200 330.0000 1.0000
42.1300 326.0000 1.0000
42.1400 349.0000 1.0000
42.1500 346.0000 1.0000
42.1600 329.0000 1.0000
42.1700 335.0000 1.0000
42.1800 337.0000 1.0000
42.1900 359.0000 1.0000
42.2000 328.0000 1.0000
42.2100 319.0000 1.0000
42.2200 350.0000 1.0000
42.2300 346.0000 1.0000
42.2400 380.0000 1.0000
42.2500 327.0000 1.0000
42.2600 319.0000 1.0000
42.2700 349.0000 1.0000
42.2800 373.0000 1.0000
42.2900 360.0000 1.0000
42.3000 341.0000 1.0000
42.3100 346.0000 1.0000
42.3200 337.0000 1.0000
42.3300 344.0000 1.0000
42.3400 312.0000 1.0000
42.3500 342.0000 1.0000
42.3600 353.0000 1.0000
42.3700 356.0000 1.0000
42.3800 328.0000 1.0000
42.3900 289.0000 1.0000
42.4000 335.0000 1.0000
42.4100 356.0000 1.0000
42.4200 332.0000 1.0000
42.4300 343.0000 1.0000
42.4400 316.0000 1.0000
42.4500 348.0000 1.0000
42.4600 333.0000 1.0000
42.4700 332.0000 1.0000
42.4800 332.0000 1.0000
42.4900 321.0000 1.0000
42.5000 346.0000 1.0000
42.5100 318.0000 1.0000
42.5200 350.0000 1.0000
42.5300 322.0000 1.0000
42.5400 315.0000 1.0000
42.5500 328.0000 1.0000
42.5600 342.0000 1.0000
42.5700 376.0000 1.0000
42.5800 344.0000 1.0000
42.5900 325.0000 1.0000
42.6000 324.0000 1.0000
42.6100 334.0000 1.0000
42.6200 331.0000 1.0000
42.6300 326.0000 1.0000
42.6400 319.0000 1.0000
42.6500 327.0000 1.0000
42.6600 345.0000 1.0000
42.6700 320.0000 1.0000
42.6800 328.0000 1.0000
42.6900 345.0000 1.0000
42.7000 319.0000 1.0000
42.7100 320.0000 1.0000
42.7200 324.0000 1.0000
42.7300 380.0000 1.0000
42.7400 313.0000 1.0000
42.7500 331.0000 1.0000
42.7600 353.0000 1.0000
42.7700 367.0000 1.0000
42.7800 346.0000 1.0000
42.7900 314.0000 1.0000
42.8000 350.0000 1.0000
42.8100 322.0000 1.0000
42.8200 331.0000 1.0000
42.8300 305.0000 1.0000
42.8400 330.0000 1.0000
42.8500 324.0000 1.0000
42.8600 320.0000 1.0000
42.8700 332.0000 1.0000
42.8800 329.0000 1.0000
42.8900 334.0000 1.0000
42.9000 326.0000 1.0000
42.9100 333.0000 1.0000
42.9200 362.0000 1.0000
42.9300 314.0000 1.0000
42.9400 330.0000 1.0000
42.9500 321.0000 1.0000
42.9600 355.0000 1.0000
42.9700 337.0000 1.0000
42.9800 320.0000 1.0000
42.9900 338.0000 1.0000
43.0000 333.0000 1.0000
43.0100 339.0000 1.0000
43.0200 316.0000 1.0000
43.0300 350.0000 1.0000
43.0400 340.0000 1.0000
43.0500 283.0000 1.0000
43.0600 322.0000 1.0000
43.0700 307.0000 1.0000
43.0800 357.0000 1.0000
43.0900 355.0000 1.0000
43.1000 339.0000 1.0000
43.1100 338.0000 1.0000
43.1200 334.0000 1.0000
43.1300 347.0000 1.0000
43.1400 340.0000 1.0000
43.1500 338.0000 1.0000
43.1600 353.0000 1.0000
43.1700 353.0000 1.0000
43.1800 369.0000 1.0000
43.1900 348.0000 1.0000
43.2000 351.0000 1.0000
43.2100 352.0000 1.0000
43.2200 353.0000 1.0000
43.2300 345.0000 1.0000
43.2400 356.0000 1.0000
43.2500 367.0000 1.0000
43.2600 352.0000 1.0000
43.2700 368.0000 1.0000
43.2800 356.0000 1.0000
43.2900 358.0000 1.0000
43.3000 360.0000 1.0000
43.3100 367.0000 1.0000
43.3200 378.0000 1.0000
43.3300 367.0000 1.0000
43.3400 353.0000 1.0000
43.3500 383.0000 1.0000
43.3600 373.0000 1.0000
43.3700 358.0000 1.0000
43.3800 342.0000 1.0000
43.3900 333.0000 1.0000
43.4000 338.0000 1.0000
43.4100 344.0000 1.0000
43.4200 354.0000 1.0000
43.4300 336.0000 1.0000
43.4400 355.0000 1.0000
43.4500 338.0000 1.0000
43.4600 356.0000 1.0000
43.4700 338.0000 1.0000
43.4800 314.0000 1.0000
43.4900 339.0000 1.0000
43.5000 333.0000 1.0000
43.5100 351.0000 1.0000
43.5200 298.0000 1.0000
43.5300 321.0000 1.0000
43.5400 332.0000 1.0000
43.5500 315.0000 1.0000
43.5600 347.0000 1.0000
43.5700 364.0000 1.0000
43.5800 323.0000 1.0000
43.5900 316.0000 1.0000
43.6000 297.0000 1.0000
43.6100 325.0000 1.0000
43.6200 347.0000 1.0000
43.6300 324.0000 1.0000
43.6400 370.0000 1.0000
43.6500 350.0000 1.0000
43.6600 322.0000 1.0000
43.6700 326.0000 1.0000
43.6800 319.0000 1.0000
43.6900 339.0000 1.0000
43.7000 331.0000 1.0000
43.7100 357.0000 1.0000
43.7200 339.0000 1.0000
43.7300 330.0000 1.0000
43.7400 324.0000 1.0000
43.7500 311.0000 1.0000
43.7600 347.0000 1.0000
43.7700 342.0000 1.0000
43.7800 328.0000 1.0000
43.7900 316.0000 1.0000
43.8000 297.0000 1.0000
43.8100 305.0000 1.0000
43.8200 338.0000 1.0000
43.8300 360.0000 1.0000
43.8400 365.0000 1.0000
43.8500 310.0000 1.0000
43.8600 299.0000 1.0000
43.8700 328.0000 1.0000
43.8800 324.0000 1.0000
43.8900 349.0000 1.0000
43.9000 314.0000 1.0000
43.9100 343.0000 1.0000
43.9200 351.0000 1.0000
43.9300 348.0000 1.0000
43.9400 326.0000 1.0000
43.9500 322.0000 1.0000
43.9600 296.0000 1.0000
43.9700 309.0000 1.0000
43.9800 322.0000 1.0000
43.9900 349.0000 1.0000
44.0000 322.0000 1.0000
44.0100 335.0000 1.0000
44.0200 320.0000 1.0000
44.0300 342.0000 1.0000
44.0400 299.0000 1.0000
44.0500 309.0000 1.0000
44.0600 320.0000 1.0000
44.0700 354.0000 1.0000
44.0800 328.0000 1.0000
44.0900 323.0000 1.0000
44.1000 323.0000 1.0000
44.1100 345.0000 1.0000
44.1200 333.0000 1.0000
44.1300 346.0000 1.0000
44.1400 357.0000 1.0000
44.1500 339.0000 1.0000
44.1600 350.0000 1.0000
44.1700 316.0000 1.0000
44.1800 312.0000 1.0000
44.1900 317.0000 1.0000
44.2000 309.0000 1.0000
44.2100 339.0000 1.0000
44.2200 334.0000 1.0000
44.2300 328.0000 1.0000
44.2400 332.0000 1.0000
44.2500 317.0000 1.0000
44.2600 322.0000 1.0000
44.2700 319.0000 1.0000
44.2800 336.0000 1.0000
44.2900 334.0000 1.0000
44.3000 354.0000 1.0000
44.3100 341.0000 1.0000
44.3200 354.0000 1.0000
44.3300 318.0000 1.0000
44.3400 332.0000 1.0000
44.3500 321.0000 1.0000
44.3600 307.0000 1.0000
44.3700 352.0000 1.0000
44.3800 318.0000 1.0000
44.3900 321.0000 1.0000
44.4000 331.0000 1.0000
44.4100 317.0000 1.0000
44.4200 345.0000 1.0000
44.4300 347.0000 1.0000
44.4400 303.0000 1.0000
44.4500 304.0000 1.0000
44.4600 318.0000 1.0000
44.4700 320.0000 1.0000
44.4800 337.0000 1.0000
44.4900 322.0000 1.0000
44.5000 348.0000 1.0000
44.5100 329.0000 1.0000
44.5200 320.0000 1.0000
44.5300 313.0000 1.0000
44.5400 328.0000 1.0000
44.5500 359.0000 1.0000
44.5600 330.0000 1.0000
44.5700 328.0000 1.0000
44.5800 352.0000 1.0000
44.5900 353.0000 1.0000
44.6000 325.0000 1.0000
44.6100 337.0000 1.0000
44.6200 350.0000 1.0000
44.6300 299.0000 1.0000
44.6400 329.0000 1.0000
44.6500 298.0000 1.0000
44.6600 362.0000 1.0000
44.6700 334.0000 1.0000
44.6800 306.0000 1.0000
44.6900 336.0000 1.0000
44.7000 308.0000 1.0000
44.7100 331.0000 1.0000
44.7200 329.0000 1.0000
44.7300 330.0000 1.0000
44.7400 312.0000 1.0000
44.7500 299.0000 1.0000
44.7600 333.0000 1.0000
44.7700 323.0000 1.0000
44.7800 316.0000 1.0000
44.7900 313.0000 1.0000
44.8000 308.0000 1.0000
44.8100 314.0000 1.0000
44.8200 303.0000 1.0000
44.8300 305.0000 1.0000
44.8400 346.0000 1.0000
44.8500 309.0000 1.0000
44.8600 291.0000 1.0000
44.8700 322.0000 1.0000
44.8800 335.0000 1.0000
44.8900 316.0000 1.0000
44.9000 315.0000 1.0000
44.9100 328.0000 1.0000
44.9200 318.0000 1.0000
44.9300 349.0000 1.0000
44.9400 306.0000 1.0000
44.9500 304.0000 1.0000
44.9600 317.0000 1.0000
44.9700 324.0000 1.0000
44.9800 322.0000 1.0000
44.9900 316.0000 1.0000
45.0000 302.0000 1.0000
45.0100 344.0000 1.0000
45.0200 306.0000 1.0000
45.0300 320.0000 1.0000
45.0400 349.0000 1.0000
45.0500 311.0000 1.0000
45.0600 335.0000 1.0000
45.0700 321.0000 1.0000
45.0800 314.0000 1.0000
45.0900 301.0000 1.0000
45.1000 302.0000 1.0000
45.1100 303.0000 1.0000
45.1200 338.0000 1.0000
45.1300 313.0000 1.0000
45.1400 340.0000 1.0000
45.1500 338.0000 1.0000
45.1600 304.0000 1.0000
45.1700 319.0000 1.0000
45.1800 301.0000 1.0000
45.1900 321.0000 1.0000
45.2000 284.0000 1.0000
45.2100 303.0000 1.0000
45.2200 323.0000 1.0000
45.2300 309.0000 1.0000
45.2400 330.0000 1.0000
45.2500 301.0000 1.0000
45.2600 304.0000 1.0000
45.2700 329.0000 1.0000
45.2800 307.0000 1.0000
45.2900 309.0000 1.0000
45.3000 291.0000 1.0000
45.3100 282.0000 1.0000
45.3200 279.0000 1.0000
45.3300 301.0000 1.0000
45.3400 293.0000 1.0000
45.3500 279.0000 1.0000
45.3600 309.0000 1.0000
45.3700 329.0000 1.0000
45.3800 320.0000 1.0000
45.3900 310.0000 1.0000
45.4000 334.0000 1.0000
45.4100 324.0000 1.0000
45.4200 322.0000 1.0000
45.4300 318.0000 1.0000
45.4400 320.0000 1.0000
45.4500 288.0000 1.0000
45.4600 311.0000 1.0000
45.4700 332.0000 1.0000
45.4800 337.0000 1.0000
45.4900 346.0000 1.0000
45.5000 292.0000 1.0000
45.5100 303.0000 1.0000
45.5200 335.0000 1.0000
45.5300 309.0000 1.0000
45.5400 332.0000 1.0000
45.5500 332.0000 1.0000
45.5600 303.0000 1.0000
45.5700 314.0000 1.0000
45.5800 302.0000 1.0000
45.5900 318.0000 1.0000
45.6000 294.0000 1.0000
45.6100 280.0000 1.0000
45.6200 323.0000 1.0000
45.6300 341.0000 1.0000
45.6400 309.0000 1.0000
45.6500 337.0000 1.0000
45.6600 300.0000 1.0000
45.6700 302.0000 1.0000
45.6800 325.0000 1.0000
45.6900 291.0000 1.0000
45.7000 303.0000 1.0000
45.7100 293.0000 1.0000
45.7200 295.0000 1.0000
45.7300 303.0000 1.0000
45.7400 299.0000 1.0000
45.7500 326.0000 1.0000
45.7600 294.0000 1.0000
45.7700 298.0000 1.0000
45.7800 313.0000 1.0000
45.7900 295.0000 1.0000
45.8000 293.0000 1.0000
45.8100 296.0000 1.0000
45.8200 347.0000 1.0000
45.8300 317.0000 1.0000
45.8400 309.0000 1.0000
45.8500 320.0000 1.0000
45.8600 293.0000 1.0000
45.8700 308.0000 1.0000
45.8800 322.0000 1.0000
45.8900 312.0000 1.0000
45.9000 340.0000 1.0000
45.9100 324.0000 1.0000
45.9200 331.0000 1.0000
45.9300 308.0000 1.0000
45.9400 318.0000 1.0000
45.9500 297.0000 1.0000
45.9600 313.0000 1.0000
45.9700 307.0000 1.0000
45.9800 312.0000 1.0000
45.9900 322.0000 1.0000
46.0000 330.0000 1.0000
46.0100 315.0000 1.0000
46.0200 298.0000 1.0000
46.0300 318.0000 1.0000
46.0400 301.0000 1.0000
46.0500 307.0000 1.0000
46.0600 302.0000 1.0000
46.0700 310.0000 1.0000
46.0800 303.0000 1.0000
46.0900 315.0000 1.0000
46.1000 317.0000 1.0000
46.1100 298.0000 1.0000
46.1200 307.0000 1.0000
46.1300 302.0000 1.0000
46.1400 314.0000 1.0000
46.1500 290.0000 1.0000
46.1600 327.0000 1.0000
46.1700 317.0000 1.0000
46.1800 309.0000 1.0000
46.1900 322.0000 1.0000
46.2000 330.0000 1.0000
46.2100 331.0000 1.0000
46.2200 300.0000 1.0000
46.2300 306.0000 1.0000
46.2400 305.0000 1.0000
46.2500 305.0000 1.0000
46.2600 308.0000 1.0000
46.2700 290.0000 1.0000
46.2800 341.0000 1.0000
46.2900 285.0000 1.0000
46.3000 322.0000 1.0000
46.3100 317.0000 1.0000
46.3200 313.0000 1.0000
46.3300 324.0000 1.0000
46.3400 311.0000 1.0000
46.3500 324.0000 1.0000
46.3600 315.0000 1.0000
46.3700 334.0000 1.0000
46.3800 322.0000 1.0000
46.3900 309.0000 1.0000
46.4000 316.0000 1.0000
46.4100 285.0000 1.0000
46.4200 317.0000 1.0000
46.4300 304.0000 1.0000
46.4400 288.0000 1.0000
46.4500 306.0000 1.0000
46.4600 299.0000 1.0000
46.4700 302.0000 1.0000
46.4800 279.0000 1.0000
46.4900 291.0000 1.0000
46.5000 303.0000 1.0000
46.5100 308.0000 1.0000
46.5200 297.0000 1.0000
46.5300 326.0000 1.0000
46.5400 302.0000 1.0000
46.5500 294.0000 1.0000
46.5600 300.0000 1.0000
46.5700 308.0000 1.0000
46.5800 321.0000 1.0000
46.5900 324.0000 1.0000
46.6000 295.0000 1.0000
46.6100 290.0000 1.0000
46.6200 292.0000 1.0000
46.6300 323.0000 1.0000
46.6400 317.0000 1.0000
46.6500 279.0000 1.0000
46.6600 303.0000 1.0000
46.6700 312.0000 1.0000
46.6800 332.0000 1.0000
46.6900 286.0000 1.0000
46.7000 311.0000 1.0000
46.7100 321.0000 1.0000
46.7200 305.0000 1.0000
46.7300 294.0000 1.0000
46.7400 303.0000 1.0000
46.7500 306.0000 1.0000
46.7600 323.0000 1.0000
46.7700 317.0000 1.0000
46.7800 334.0000 1.0000
46.7900 280.0000 1.0000
46.8000 292.0000 1.0000
46.8100 296.0000 1.0000
46.8200 296.0000 1.0000
46.8300 322.0000 1.0000
46.8400 338.0000 1.0000
46.8500 316.0000 1.0000
46.8600 299.0000 1.0000
46.8700 297.0000 1.0000
46.8800 282.0000 1.0000
46.8900 294.0000 1.0000
46.9000 300.0000 1.0000
46.9100 319.0000 1.0000
46.9200 299.0000 1.0000
46.9300 299.0000 1.0000
46.9400 298.0000 1.0000
46.9500 308.0000 1.0000
46.9600 311.0000 1.0000
46.9700 334.0000 1.0000
46.9800 294.0000 1.0000
46.9900 304.0000 1.0000
47.0000 319.0000 1.0000
47.0100 299.0000 1.0000
47.0200 302.0000 1.0000
47.0300 299.0000 1.0000
47.0400 323.0000 1.0000
47.0500 325.0000 1.0000
47.0600 321.0000 1.0000
47.0700 329.0000 1.0000
47.0800 326.0000 1.0000
47.0900 333.0000 1.0000
47.1000 352.0000 1.0000
47.1100 318.0000 1.0000
47.1200 306.0000 1.0000
47.1300 310.0000 1.0000
47.1400 322.0000 1.0000
47.1500 291.0000 1.0000
47.1600 323.0000 1.0000
47.1700 297.0000 1.0000
47.1800 320.0000 1.0000
47.1900 299.0000 1.0000
47.2000 328.0000 1.0000
47.2100 323.0000 1.0000
47.2200 295.0000 1.0000
47.2300 302.0000 1.0000
47.2400 316.0000 1.0000
47.2500 293.0000 1.0000
47.2600 307.0000 1.0000
47.2700 315.0000 1.0000
47.2800 332.0000 1.0000
47.2900 296.0000 1.0000
47.3000 287.0000 1.0000
47.3100 278.0000 1.0000
47.3200 315.0000 1.0000
47.3300 304.0000 1.0000
47.3400 293.0000 1.0000
47.3500 288.0000 1.0000
47.3600 276.0000 1.0000
47.3700 320.0000 1.0000
47.3800 292.0000 1.0000
47.3900 291.0000 1.0000
47.4000 304.0000 1.0000
47.4100 322.0000 1.0000
47.4200 322.0000 1.0000
47.4300 315.0000 1.0000
47.4400 299.0000 1.0000
47.4500 289.0000 1.0000
47.4600 303.0000 1.0000
47.4700 279.0000 1.0000
47.4800 287.0000 1.0000
47.4900 302.0000 1.0000
47.5000 320.0000 1.0000
47.5100 314.0000 1.0000
47.5200 330.0000 1.0000
47.5300 305.0000 1.0000
47.5400 285.0000 1.0000
47.5500 298.0000 1.0000
47.5600 306.0000 1.0000
47.5700 295.0000 1.0000
47.5800 305.0000 1.0000
47.5900 291.0000 1.0000
47.6000 313.0000 1.0000
47.6100 326.0000 1.0000
47.6200 316.0000 1.0000
47.6300 316.0000 1.0000
47.6400 300.0000 1.0000
47.6500 306.0000 1.0000
47.6600 339.0000 1.0000
47.6700 297.0000 1.0000
47.6800 277.0000 1.0000
47.6900 289.0000 1.0000
47.7000 308.0000 1.0000
47.7100 282.0000 1.0000
47.7200 317.0000 1.0000
47.7300 304.0000 1.0000
47.7400 304.0000 1.0000
47.7500 275.0000 1.0000
47.7600 291.0000 1.0000
47.7700 305.0000 1.0000
47.7800 284.0000 1.0000
47.7900 280.0000 1.0000
47.8000 276.0000 1.0000
47.8100 281.0000 1.0000
47.8200 293.0000 1.0000
47.8300 282.0000 1.0000
47.8400 344.0000 1.0000
47.8500 301.0000 1.0000
47.8600 294.0000 1.0000
47.8700 309.0000 1.0000
47.8800 302.0000 1.0000
47.8900 307.0000 1.0000
47.9000 302.0000 1.0000
47.9100 274.0000 1.0000
47.9200 264.0000 1.0000
47.9300 299.0000 1.0000
47.9400 317.0000 1.0000
47.9500 298.0000 1.0000
47.9600 314.0000 1.0000
47.9700 278.0000 1.0000
47.9800 313.0000 1.0000
47.9900 324.0000 1.0000
48.0000 299.0000 1.0000
48.0100 312.0000 1.0000
48.0200 263.0000 1.0000
48.0300 278.0000 1.0000
48.0400 276.0000 1.0000
48.0500 282.0000 1.0000
48.0600 286.0000 1.0000
48.0700 299.0000 1.0000
48.0800 320.0000 1.0000
48.0900 321.0000 1.0000
48.1000 292.0000 1.0000
48.1100 305.0000 1.0000
48.1200 303.0000 1.0000
48.1300 281.0000 1.0000
48.1400 291.0000 1.0000
48.1500 304.0000 1.0000
48.1600 272.0000 1.0000
48.1700 306.0000 1.0000
48.1800 312.0000 1.0000
48.1900 297.0000 1.0000
48.2000 285.0000 1.0000
48.2100 292.0000 1.0000
48.2200 294.0000 1.0000
48.2300 277.0000 1.0000
48.2400 273.0000 1.0000
48.2500 290.0000 1.0000
48.2600 282.0000 1.0000
48.2700 305.0000 1.0000
48.2800 286.0000 1.0000
48.2900 288.0000 1.0000
48.3000 307.0000 1.0000
48.3100 313.0000 1.0000
48.3200 292.0000 1.0000
48.3300 272.0000 1.0000
48.3400 278.0000 1.0000
48.3500 285.0000 1.0000
48.3600 281.0000 1.0000
48.3700 296.0000 1.0000
48.3800 293.0000 1.0000
48.3900 294.0000 1.0000
48.4000 299.0000 1.0000
48.4100 287.0000 1.0000
48.4200 278.0000 1.0000
48.4300 278.0000 1.0000
48.4400 289.0000 1.0000
48.4500 300.0000 1.0000
48.4600 290.0000 1.0000
48.4700 274.0000 1.0000
48.4800 313.0000 1.0000
48.4900 278.0000 1.0000
48.5000 316.0000 1.0000
48.5100 295.0000 1.0000
48.5200 299.0000 1.0000
48.5300 303.0000 1.0000
48.5400 297.0000 1.0000
48.5500 302.0000 1.0000
48.5600 282.0000 1.0000
48.5700 274.0000 1.0000
48.5800 273.0000 1.0000
48.5900 276.0000 1.0000
48.6000 312.0000 1.0000
48.6100 290.0000 1.0000
48.6200 284.0000 1.0000
48.6300 299.0000 1.0000
48.6400 267.0000 1.0000
48.6500 273.0000 1.0000
48.6600 301.0000 1.0000
48.6700 321.0000 1.0000
48.6800 300.0000 1.0000
48.6900 288.0000 1.0000
48.7000 286.0000 1.0000
48.7100 264.0000 1.0000
48.7200 290.0000 1.0000
48.7300 292.0000 1.0000
48.7400 308.0000 1.0000
48.7500 309.0000 1.0000
48.7600 296.0000 1.0000
48.7700 305.0000 1.0000
48.7800 282.0000 1.0000
48.7900 296.0000 1.0000
48.8000 308.0000 1.0000
48.8100 289.0000 1.0000
48.8200 288.0000 1.0000
48.8300 302.0000 1.0000
48.8400 308.0000 1.0000
48.8500 293.0000 1.0000
48.8600 286.0000 1.0000
48.8700 265.0000 1.0000
48.8800 298.0000 1.0000
48.8900 315.0000 1.0000
48.9000 293.0000 1.0000
48.9100 272.0000 1.0000
48.9200 267.0000 1.0000
48.9300 276.0000 1.0000
48.9400 287.0000 1.0000
48.9500 290.0000 1.0000
48.9600 259.0000 1.0000
48.9700 274.0000 1.0000
48.9800 307.0000 1.0000
48.9900 301.0000 1.0000
49.0000 300.0000 1.0000
49.0100 269.0000 1.0000
49.0200 284.0000 1.0000
49.0300 298.0000 1.0000
49.0400 284.0000 1.0000
49.0500 271.0000 1.0000
49.0600 256.0000 1.0000
49.0700 283.0000 1.0000
49.0800 294.0000 1.0000
49.0900 311.0000 1.0000
49.1000 280.0000 1.0000
49.1100 295.0000 1.0000
49.1200 285.0000 1.0000
49.1300 298.0000 1.0000
49.1400 295.0000 1.0000
49.1500 294.0000 1.0000
49.1600 297.0000 1.0000
49.1700 289.0000 1.0000
49.1800 288.0000 1.0000
49.1900 293.0000 1.0000
49.2000 309.0000 1.0000
49.2100 284.0000 1.0000
49.2200 301.0000 1.0000
49.2300 305.0000 1.0000
49.2400 309.0000 1.0000
49.2500 294.0000 1.0000
49.2600 288.0000 1.0000
49.2700 277.0000 1.0000
49.2800 302.0000 1.0000
49.2900 296.0000 1.0000
49.3000 317.0000 1.0000
49.3100 307.0000 1.0000
49.3200 279.0000 1.0000
49.3300 277.0000 1.0000
49.3400 275.0000 1.0000
49.3500 275.0000 1.0000
49.3600 257.0000 1.0000
49.3700 270.0000 1.0000
49.3800 308.0000 1.0000
49.3900 285.0000 1.0000
49.4000 297.0000 1.0000
49.4100 278.0000 1.0000
49.4200 302.0000 1.0000
49.4300 283.0000 1.0000
49.4400 316.0000 1.0000
49.4500 296.0000 1.0000
49.4600 299.0000 1.0000
49.4700 305.0000 1.0000
49.4800 286.0000 1.0000
49.4900 295.0000 1.0000
49.5000 283.0000 1.0000
49.5100 275.0000 1.0000
49.5200 270.0000 1.0000
49.5300 292.0000 1.0000
49.5400 284.0000 1.0000
49.5500 235.0000 1.0000
49.5600 291.0000 1.0000
49.5700 297.0000 1.0000
49.5800 295.0000 1.0000
49.5900 303.0000 1.0000
49.6000 263.0000 1.0000
49.6100 280.0000 1.0000
49.6200 266.0000 1.0000
49.6300 265.0000 1.0000
49.6400 289.0000 1.0000
49.6500 280.0000 1.0000
49.6600 281.0000 1.0000
49.6700 287.0000 1.0000
49.6800 285.0000 1.0000
49.6900 266.0000 1.0000
49.7000 265.0000 1.0000
49.7100 302.0000 1.0000
49.7200 282.0000 1.0000
49.7300 312.0000 1.0000
49.7400 318.0000 1.0000
49.7500 281.0000 1.0000
49.7600 296.0000 1.0000
49.7700 286.0000 1.0000
49.7800 292.0000 1.0000
49.7900 286.0000 1.0000
49.8000 287.0000 1.0000
49.8100 295.0000 1.0000
49.8200 279.0000 1.0000
49.8300 290.0000 1.0000
49.8400 302.0000 1.0000
49.8500 258.0000 1.0000
49.8600 283.0000 1.0000
49.8700 277.0000 1.0000
49.8800 267.0000 1.0000
49.8900 283.0000 1.0000
49.9000 285.0000 1.0000
49.9100 294.0000 1.0000
49.9200 281.0000 1.0000
49.9300 301.0000 1.0000
49.9400 289.0000 1.0000
49.9500 294.0000 1.0000
49.9600 306.0000 1.0000
49.9700 283.0000 1.0000
49.9800 272.0000 1.0000
49.9900 285.0000 1.0000
50.0000 282.0000 1.0000
50.0100 286.0000 1.0000
50.0200 276.0000 1.0000
50.0300 305.0000 1.0000
50.0400 300.0000 1.0000
50.0500 308.0000 1.0000
50.0600 266.0000 1.0000
50.0700 309.0000 1.0000
50.0800 293.0000 1.0000
50.0900 285.0000 1.0000
50.1000 266.0000 1.0000
50.1100 289.0000 1.0000
50.1200 296.0000 1.0000
50.1300 285.0000 1.0000
50.1400 306.0000 1.0000
50.1500 280.0000 1.0000
50.1600 300.0000 1.0000
50.1700 275.0000 1.0000
50.1800 297.0000 1.0000
50.1900 305.0000 1.0000
50.2000 314.0000 1.0000
50.2100 287.0000 1.0000
50.2200 305.0000 1.0000
50.2300 303.0000 1.0000
50.2400 300.0000 1.0000
50.2500 303.0000 1.0000
50.2600 303.0000 1.0000
50.2700 297.0000 1.0000
50.2800 289.0000 1.0000
50.2900 291.0000 1.0000
50.3000 303.0000 1.0000
50.3100 327.0000 1.0000
50.3200 328.0000 1.0000
50.3300 296.0000 1.0000
50.3400 300.0000 1.0000
50.3500 288.0000 1.0000
50.3600 292.0000 1.0000
50.3700 309.0000 1.0000
50.3800 283.0000 1.0000
50.3900 274.0000 1.0000
50.4000 302.0000 1.0000
50.4100 275.0000 1.0000
50.4200 268.0000 1.0000
50.4300 291.0000 1.0000
50.4400 292.0000 1.0000
50.4500 278.0000 1.0000
50.4600 304.0000 1.0000
50.4700 290.0000 1.0000
50.4800 297.0000 1.0000
50.4900 283.0000 1.0000
50.5000 293.0000 1.0000
50.5100 270.0000 1.0000
50.5200 313.0000 1.0000
50.5300 275.0000 1.0000
50.5400 322.0000 1.0000
50.5500 284.0000 1.0000
50.5600 281.0000 1.0000
50.5700 289.0000 1.0000
50.5800 300.0000 1.0000
50.5900 305.0000 1.0000
50.6000 311.0000 1.0000
50.6100 324.0000 1.0000
50.6200 292.0000 1.0000
50.6300 293.0000 1.0000
50.6400 277.0000 1.0000
50.6500 303.0000 1.0000
50.6600 294.0000 1.0000
50.6700 306.0000 1.0000
50.6800 289.0000 1.0000
50.6900 273.0000 1.0000
50.7000 290.0000 1.0000
50.7100 298.0000 1.0000
50.7200 304.0000 1.0000
50.7300 277.0000 1.0000
50.7400 286.0000 1.0000
50.7500 322.0000 1.0000
50.7600 276.0000 1.0000
50.7700 265.0000 1.0000
50.7800 300.0000 1.0000
50.7900 285.0000 1.0000
50.8000 280.0000 1.0000
50.8100 293.0000 1.0000
50.8200 296.0000 1.0000
50.8300 298.0000 1.0000
50.8400 278.0000 1.0000
50.8500 310.0000 1.0000
50.8600 284.0000 1.0000
50.8700 286.0000 1.0000
50.8800 290.0000 1.0000
50.8900 295.0000 1.0000
50.9000 283.0000 1.0000
50.9100 291.0000 1.0000
50.9200 310.0000 1.0000
50.9300 271.0000 1.0000
50.9400 257.0000 1.0000
50.9500 302.0000 1.0000
50.9600 308.0000 1.0000
50.9700 272.0000 1.0000
50.9800 305.0000 1.0000
50.9900 294.0000 1.0000
51.0000 285.0000 1.0000
51.0100 259.0000 1.0000
51.0200 286.0000 1.0000
51.0300 303.0000 1.0000
51.0400 274.0000 1.0000
51.0500 301.0000 1.0000
51.0600 290.0000 1.0000
51.0700 317.0000 1.0000
51.0800 281.0000 1.0000
51.0900 286.0000 1.0000
51.1000 282.0000 1.0000
51.1100 287.0000 1.0000
51.1200 312.0000 1.0000
51.1300 322.0000 1.0000
51.1400 294.0000 1.0000
51.1500 267.0000 1.0000
51.1600 285.0000 1.0000
51.1700 283.0000 1.0000
51.1800 300.0000 1.0000
51.1900 306.0000 1.0000
51.2000 303.0000 1.0000
51.2100 296.0000 1.0000
51.2200 290.0000 1.0000
51.2300 313.0000 1.0000
51.2400 277.0000 1.0000
51.2500 291.0000 1.0000
51.2600 294.0000 1.0000
51.2700 302.0000 1.0000
51.2800 290.0000 1.0000
51.2900 325.0000 1.0000
51.3000 306.0000 1.0000
51.3100 296.0000 1.0000
51.3200 303.0000 1.0000
51.3300 269.0000 1.0000
51.3400 278.0000 1.0000
51.3500 271.0000 1.0000
51.3600 264.0000 1.0000
51.3700 293.0000 1.0000
51.3800 301.0000 1.0000
51.3900 307.0000 1.0000
51.4000 280.0000 1.0000
51.4100 331.0000 1.0000
51.4200 292.0000 1.0000
51.4300 291.0000 1.0000
51.4400 303.0000 1.0000
51.4500 307.0000 1.0000
51.4600 282.0000 1.0000
51.4700 304.0000 1.0000
51.4800 285.0000 1.0000
51.4900 304.0000 1.0000
51.5000 299.0000 1.0000
51.5100 326.0000 1.0000
51.5200 275.0000 1.0000
51.5300 293.0000 1.0000
51.5400 323.0000 1.0000
51.5500 319.0000 1.0000
51.5600 305.0000 1.0000
51.5700 293.0000 1.0000
51.5800 300.0000 1.0000
51.5900 292.0000 1.0000
51.6000 309.0000 1.0000
51.6100 298.0000 1.0000
51.6200 306.0000 1.0000
51.6300 282.0000 1.0000
51.6400 299.0000 1.0000
51.6500 322.0000 1.0000
51.6600 312.0000 1.0000
51.6700 315.0000 1.0000
51.6800 302.0000 1.0000
51.6900 291.0000 1.0000
51.7000 331.0000 1.0000
51.7100 308.0000 1.0000
51.7200 307.0000 1.0000
51.7300 321.0000 1.0000
51.7400 322.0000 1.0000
51.7500 336.0000 1.0000
51.7600 301.0000 1.0000
51.7700 269.0000 1.0000
51.7800 287.0000 1.0000
51.7900 301.0000 1.0000
51.8000 317.0000 1.0000
51.8100 331.0000 1.0000
51.8200 357.0000 1.0000
51.8300 326.0000 1.0000
51.8400 354.0000 1.0000
51.8500 374.0000 1.0000
51.8600 353.0000 1.0000
51.8700 327.0000 1.0000
51.8800 372.0000 1.0000
51.8900 354.0000 1.0000
51.9000 328.0000 1.0000
51.9100 341.0000 1.0000
51.9200 326.0000 1.0000
51.9300 365.0000 1.0000
51.9400 377.0000 1.0000
51.9500 388.0000 1.0000
51.9600 407.0000 1.0000
51.9700 400.0000 1.0000
51.9800 426.0000 1.0000
51.9900 427.0000 1.0000
52.0000 482.0000 1.0000
52.0100 468.0000 1.0000
52.0200 476.0000 1.0000
52.0300 513.0000 1.0000
52.0400 488.0000 1.0000
52.0500 537.0000 1.0000
52.0600 542.0000 1.0000
52.0700 557.0000 1.0000
52.0800 606.0000 1.0000
52.0900 644.0000 1.0000
52.1000 671.0000 1.0000
52.1100 684.0000 1.0000
52.1200 706.0000 1.0000
52.1300 820.0000 1.0000
52.1400 882.0000 1.0000
52.1500 907.0000 1.0000
52.1600 1002.0000 1.0000
52.1700 1042.0000 1.0000
52.1800 1136.0000 1.0000
52.1900 1235.0000 1.0000
52.2000 1376.0000 1.0000
52.2100 1596.0000 1.0000
52.2200 1673.0000 1.0000
52.2300 1823.0000 1.0000
52.2400 1908.0000 1.0000
52.2500 1965.0000 1.0000
52.2600 1987.0000 1.0000
52.2700 2133.0000 1.0000
52.2800 2144.0000 1.0000
52.2900 2152.0000 1.0000
52.3000 2171.0000 1.0000
52.3100 2209.0000 1.0000
52.3200 2170.0000 1.0000
52.3300 2043.0000 1.0000
52.3400 1983.0000 1.0000
52.3500 1887.0000 1.0000
52.3600 1842.0000 1.0000
52.3700 1800.0000 1.0000
52.3800 1734.0000 1.0000
52.3900 1701.0000 1.0000
52.4000 1676.0000 1.0000
52.4100 1608.0000 1.0000
52.4200 1574.0000 1.0000
52.4300 1540.0000 1.0000
52.4400 1471.0000 1.0000
52.4500 1413.0000 1.0000
52.4600 1326.0000 1.0000
52.4700 1214.0000 1.0000
52.4800 1113.0000 1.0000
52.4900 1073.0000 1.0000
52.5000 914.0000 1.0000
52.5100 914.0000 1.0000
52.5200 783.0000 1.0000
52.5300 760.0000 1.0000
52.5400 736.0000 1.0000
52.5500 685.0000 1.0000
52.5600 656.0000 1.0000
52.5700 647.0000 1.0000
52.5800 597.0000 1.0000
52.5900 572.0000 1.0000
52.6000 571.0000 1.0000
52.6100 515.0000 1.0000
52.6200 502.0000 1.0000
52.6300 478.0000 1.0000
52.6400 461.0000 1.0000
52.6500 460.0000 1.0000
52.6600 424.0000 1.0000
52.6700 418.0000 1.0000
52.6800 399.0000 1.0000
52.6900 415.0000 1.0000
52.7000 408.0000 1.0000
52.7100 390.0000 1.0000
52.7200 353.0000 1.0000
52.7300 408.0000 1.0000
52.7400 374.0000 1.0000
52.7500 371.0000 1.0000
52.7600 343.0000 1.0000
52.7700 358.0000 1.0000
52.7800 357.0000 1.0000
52.7900 332.0000 1.0000
52.8000 342.0000 1.0000
52.8100 333.0000 1.0000
52.8200 355.0000 1.0000
52.8300 348.0000 1.0000
52.8400 334.0000 1.0000
52.8500 334.0000 1.0000
52.8600 346.0000 1.0000
52.8700 315.0000 1.0000
52.8800 331.0000 1.0000
52.8900 331.0000 1.0000
52.9000 336.0000 1.0000
52.9100 327.0000 1.0000
52.9200 344.0000 1.0000
52.9300 331.0000 1.0000
52.9400 315.0000 1.0000
52.9500 306.0000 1.0000
52.9600 328.0000 1.0000
52.9700 316.0000 1.0000
52.9800 301.0000 1.0000
52.9900 294.0000 1.0000
53.0000 285.0000 1.0000
53.0100 292.0000 1.0000
53.0200 312.0000 1.0000
53.0300 328.0000 1.0000
53.0400 321.0000 1.0000
53.0500 301.0000 1.0000
53.0600 299.0000 1.0000
53.0700 305.0000 1.0000
53.0800 316.0000 1.0000
53.0900 331.0000 1.0000
53.1000 321.0000 1.0000
53.1100 330.0000 1.0000
53.1200 300.0000 1.0000
53.1300 309.0000 1.0000
53.1400 292.0000 1.0000
53.1500 291.0000 1.0000
53.1600 312.0000 1.0000
53.1700 296.0000 1.0000
53.1800 276.0000 1.0000
53.1900 297.0000 1.0000
53.2000 306.0000 1.0000
53.2100 316.0000 1.0000
53.2200 269.0000 1.0000
53.2300 266.0000 1.0000
53.2400 274.0000 1.0000
53.2500 295.0000 1.0000
53.2600 286.0000 1.0000
53.2700 309.0000 1.0000
53.2800 272.0000 1.0000
53.2900 288.0000 1.0000
53.3000 290.0000 1.0000
53.3100 274.0000 1.0000
53.3200 275.0000 1.0000
53.3300 304.0000 1.0000
53.3400 320.0000 1.0000
53.3500 302.0000 1.0000
53.3600 300.0000 1.0000
53.3700 297.0000 1.0000
53.3800 277.0000 1.0000
53.3900 296.0000 1.0000
53.4000 308.0000 1.0000
53.4100 319.0000 1.0000
53.4200 289.0000 1.0000
53.4300 276.0000 1.0000
53.4400 293.0000 1.0000
53.4500 280.0000 1.0000
53.4600 283.0000 1.0000
53.4700 299.0000 1.0000
53.4800 317.0000 1.0000
53.4900 286.0000 1.0000
53.5000 276.0000 1.0000
53.5100 317.0000 1.0000
53.5200 309.0000 1.0000
53.5300 296.0000 1.0000
53.5400 276.0000 1.0000
53.5500 261.0000 1.0000
53.5600 274.0000 1.0000
53.5700 271.0000 1.0000
53.5800 273.0000 1.0000
53.5900 281.0000 1.0000
53.6000 269.0000 1.0000
53.6100 272.0000 1.0000
53.6200 287.0000 1.0000
53.6300 281.0000 1.0000
53.6400 296.0000 1.0000
53.6500 273.0000 1.0000
53.6600 268.0000 1.0000
53.6700 290.0000 1.0000
53.6800 267.0000 1.0000
53.6900 291.0000 1.0000
53.7000 279.0000 1.0000
53.7100 299.0000 1.0000
53.7200 309.0000 1.0000
53.7300 302.0000 1.0000
53.7400 333.0000 1.0000
53.7500 297.0000 1.0000
53.7600 300.0000 1.0000
53.7700 278.0000 1.0000
53.7800 303.0000 1.0000
53.7900 285.0000 1.0000
53.8000 307.0000 1.0000
53.8100 290.0000 1.0000
53.8200 290.0000 1.0000
53.8300 284.0000 1.0000
53.8400 294.0000 1.0000
53.8500 290.0000 1.0000
53.8600 281.0000 1.0000
53.8700 283.0000 1.0000
53.8800 273.0000 1.0000
53.8900 273.0000 1.0000
53.9000 281.0000 1.0000
53.9100 288.0000 1.0000
53.9200 272.0000 1.0000
53.9300 287.0000 1.0000
53.9400 295.0000 1.0000
53.9500 294.0000 1.0000
53.9600 267.0000 1.0000
53.9700 267.0000 1.0000
53.9800 288.0000 1.0000
53.9900 266.0000 1.0000
54.0000 263.0000 1.0000
54.0100 267.0000 1.0000
54.0200 268.0000 1.0000
54.0300 254.0000 1.0000
54.0400 275.0000 1.0000
54.0500 274.0000 1.0000
54.0600 287.0000 1.0000
54.0700 265.0000 1.0000
54.0800 309.0000 1.0000
54.0900 263.0000 1.0000
54.1000 264.0000 1.0000
54.1100 281.0000 1.0000
54.1200 278.0000 1.0000
54.1300 279.0000 1.0000
54.1400 277.0000 1.0000
54.1500 280.0000 1.0000
54.1600 269.0000 1.0000
54.1700 260.0000 1.0000
54.1800 303.0000 1.0000
54.1900 266.0000 1.0000
54.2000 268.0000 1.0000
54.2100 274.0000 1.0000
54.2200 323.0000 1.0000
54.2300 293.0000 1.0000
54.2400 290.0000 1.0000
54.2500 265.0000 1.0000
54.2600 295.0000 1.0000
54.2700 293.0000 1.0000
54.2800 286.0000 1.0000
54.2900 290.0000 1.0000
54.3000 296.0000 1.0000
54.3100 298.0000 1.0000
54.3200 302.0000 1.0000
54.3300 296.0000 1.0000
54.3400 278.0000 1.0000
54.3500 265.0000 1.0000
54.3600 290.0000 1.0000
54.3700 277.0000 1.0000
54.3800 285.0000 1.0000
54.3900 274.0000 1.0000
54.4000 291.0000 1.0000
54.4100 305.0000 1.0000
54.4200 286.0000 1.0000
54.4300 274.0000 1.0000
54.4400 273.0000 1.0000
54.4500 270.0000 1.0000
54.4600 255.0000 1.0000
54.4700 290.0000 1.0000
54.4800 291.0000 1.0000
54.4900 296.0000 1.0000
54.5000 274.0000 1.0000
54.5100 298.0000 1.0000
54.5200 272.0000 1.0000
54.5300 296.0000 1.0000
54.5400 289.0000 1.0000
54.5500 262.0000 1.0000
54.5600 269.0000 1.0000
54.5700 291.0000 1.0000
54.5800 285.0000 1.0000
54.5900 292.0000 1.0000
54.6000 305.0000 1.0000
54.6100 266.0000 1.0000
54.6200 276.0000 1.0000
54.6300 283.0000 1.0000
54.6400 283.0000 1.0000
54.6500 271.0000 1.0000
54.6600 297.0000 1.0000
54.6700 316.0000 1.0000
54.6800 298.0000 1.0000
54.6900 311.0000 1.0000
54.7000 297.0000 1.0000
54.7100 293.0000 1.0000
54.7200 281.0000 1.0000
54.7300 280.0000 1.0000
54.7400 297.0000 1.0000
54.7500 301.0000 1.0000
54.7600 300.0000 1.0000
54.7700 280.0000 1.0000
54.7800 282.0000 1.0000
54.7900 291.0000 1.0000
54.8000 279.0000 1.0000
54.8100 293.0000 1.0000
54.8200 296.0000 1.0000
54.8300 288.0000 1.0000
54.8400 342.0000 1.0000
54.8500 290.0000 1.0000
54.8600 278.0000 1.0000
54.8700 312.0000 1.0000
54.8800 284.0000 1.0000
54.8900 338.0000 1.0000
54.9000 289.0000 1.0000
54.9100 325.0000 1.0000
54.9200 302.0000 1.0000
54.9300 300.0000 1.0000
54.9400 282.0000 1.0000
54.9500 306.0000 1.0000
54.9600 285.0000 1.0000
54.9700 333.0000 1.0000
54.9800 302.0000 1.0000
54.9900 289.0000 1.0000
55.0000 312.0000 1.0000
55.0100 332.0000 1.0000
55.0200 337.0000 1.0000
55.0300 310.0000 1.0000
55.0400 324.0000 1.0000
55.0500 320.0000 1.0000
55.0600 301.0000 1.0000
55.0700 313.0000 1.0000
55.0800 266.0000 1.0000
55.0900 304.0000 1.0000
55.1000 326.0000 1.0000
55.1100 302.0000 1.0000
55.1200 336.0000 1.0000
55.1300 323.0000 1.0000
55.1400 371.0000 1.0000
55.1500 352.0000 1.0000
55.1600 371.0000 1.0000
55.1700 351.0000 1.0000
55.1800 345.0000 1.0000
55.1900 384.0000 1.0000
55.2000 366.0000 1.0000
55.2100 364.0000 1.0000
55.2200 381.0000 1.0000
55.2300 427.0000 1.0000
55.2400 417.0000 1.0000
55.2500 432.0000 1.0000
55.2600 416.0000 1.0000
55.2700 427.0000 1.0000
55.2800 428.0000 1.0000
55.2900 397.0000 1.0000
55.3000 411.0000 1.0000
55.3100 410.0000 1.0000
55.3200 391.0000 1.0000
55.3300 425.0000 1.0000
55.3400 404.0000 1.0000
55.3500 421.0000 1.0000
55.3600 393.0000 1.0000
55.3700 382.0000 1.0000
55.3800 402.0000 1.0000
55.3900 380.0000 1.0000
55.4000 424.0000 1.0000
55.4100 396.0000 1.0000
55.4200 390.0000 1.0000
55.4300 357.0000 1.0000
55.4400 351.0000 1.0000
55.4500 342.0000 1.0000
55.4600 401.0000 1.0000
55.4700 406.0000 1.0000
55.4800 386.0000 1.0000
55.4900 384.0000 1.0000
55.5000 333.0000 1.0000
55.5100 366.0000 1.0000
55.5200 366.0000 1.0000
55.5300 344.0000 1.0000
55.5400 358.0000 1.0000
55.5500 345.0000 1.0000
55.5600 326.0000 1.0000
55.5700 319.0000 1.0000
55.5800 306.0000 1.0000
55.5900 297.0000 1.0000
55.6000 348.0000 1.0000
55.6100 307.0000 1.0000
55.6200 322.0000 1.0000
55.6300 314.0000 1.0000
55.6400 310.0000 1.0000
55.6500 339.0000 1.0000
55.6600 308.0000 1.0000
55.6700 314.0000 1.0000
55.6800 318.0000 1.0000
55.6900 296.0000 1.0000
55.7000 325.0000 1.0000
55.7100 299.0000 1.0000
55.7200 319.0000 1.0000
55.7300 330.0000 1.0000
55.7400 298.0000 1.0000
55.7500 304.0000 1.0000
55.7600 309.0000 1.0000
55.7700 307.0000 1.0000
55.7800 287.0000 1.0000
55.7900 292.0000 1.0000
55.8000 289.0000 1.0000
55.8100 290.0000 1.0000
55.8200 299.0000 1.0000
55.8300 298.0000 1.0000
55.8400 281.0000 1.0000
55.8500 308.0000 1.0000
55.8600 282.0000 1.0000
55.8700 290.0000 1.0000
55.8800 279.0000 1.0000
55.8900 290.0000 1.0000
55.9000 294.0000 1.0000
55.9100 296.0000 1.0000
55.9200 258.0000 1.0000
55.9300 279.0000 1.0000
55.9400 282.0000 1.0000
55.9500 254.0000 1.0000
55.9600 276.0000 1.0000
55.9700 280.0000 1.0000
55.9800 298.0000 1.0000
55.9900 279.0000 1.0000
56.0000 279.0000 1.0000
56.0100 283.0000 1.0000
56.0200 293.0000 1.0000
56.0300 273.0000 1.0000
56.0400 269.0000 1.0000
56.0500 272.0000 1.0000
56.0600 267.0000 1.0000
56.0700 279.0000 1.0000
56.0800 274.0000 1.0000
56.0900 286.0000 1.0000
56.1000 279.0000 1.0000
56.1100 274.0000 1.0000
56.1200 279.0000 1.0000
56.1300 253.0000 1.0000
56.1400 267.0000 1.0000
56.1500 293.0000 1.0000
56.1600 261.0000 1.0000
56.1700 285.0000 1.0000
56.1800 276.0000 1.0000
56.1900 290.0000 1.0000
56.2000 270.0000 1.0000
56.2100 272.0000 1.0000
56.2200 292.0000 1.0000
56.2300 267.0000 1.0000
56.2400 288.0000 1.0000
56.2500 267.0000 1.0000
56.2600 283.0000 1.0000
56.2700 292.0000 1.0000
56.2800 280.0000 1.0000
56.2900 278.0000 1.0000
56.3000 276.0000 1.0000
56.3100 265.0000 1.0000
56.3200 279.0000 1.0000
56.3300 262.0000 1.0000
56.3400 280.0000 1.0000
56.3500 282.0000 1.0000
56.3600 299.0000 1.0000
56.3700 278.0000 1.0000
56.3800 288.0000 1.0000
56.3900 296.0000 1.0000
56.4000 263.0000 1.0000
56.4100 278.0000 1.0000
56.4200 273.0000 1.0000
56.4300 253.0000 1.0000
56.4400 256.0000 1.0000
56.4500 279.0000 1.0000
56.4600 275.0000 1.0000
56.4700 268.0000 1.0000
56.4800 288.0000 1.0000
56.4900 262.0000 1.0000
56.5000 257.0000 1.0000
56.5100 256.0000 1.0000
56.5200 276.0000 1.0000
56.5300 302.0000 1.0000
56.5400 266.0000 1.0000
56.5500 249.0000 1.0000
56.5600 253.0000 1.0000
56.5700 243.0000 1.0000
56.5800 258.0000 1.0000
56.5900 251.0000 1.0000
56.6000 276.0000 1.0000
56.6100 246.0000 1.0000
56.6200 261.0000 1.0000
56.6300 298.0000 1.0000
56.6400 247.0000 1.0000
56.6500 266.0000 1.0000
56.6600 286.0000 1.0000
56.6700 289.0000 1.0000
56.6800 297.0000 1.0000
56.6900 314.0000 1.0000
56.7000 280.0000 1.0000
56.7100 252.0000 1.0000
56.7200 266.0000 1.0000
56.7300 264.0000 1.0000
56.7400 289.0000 1.0000
56.7500 300.0000 1.0000
56.7600 268.0000 1.0000
56.7700 261.0000 1.0000
56.7800 283.0000 1.0000
56.7900 271.0000 1.0000
56.8000 275.0000 1.0000
56.8100 264.0000 1.0000
56.8200 305.0000 1.0000
56.8300 285.0000 1.0000
56.8400 289.0000 1.0000
56.8500 263.0000 1.0000
56.8600 277.0000 1.0000
56.8700 268.0000 1.0000
56.8800 278.0000 1.0000
56.8900 277.0000 1.0000
56.9000 272.0000 1.0000
56.9100 277.0000 1.0000
56.9200 287.0000 1.0000
56.9300 268.0000 1.0000
56.9400 258.0000 1.0000
56.9500 288.0000 1.0000
56.9600 272.0000 1.0000
56.9700 259.0000 1.0000
56.9800 276.0000 1.0000
56.9900 267.0000 1.0000
57.0000 284.0000 1.0000
57.0100 282.0000 1.0000
57.0200 261.0000 1.0000
57.0300 280.0000 1.0000
57.0400 281.0000 1.0000
57.0500 289.0000 1.0000
57.0600 268.0000 1.0000
57.0700 265.0000 1.0000
57.0800 291.0000 1.0000
57.0900 283.0000 1.0000
57.1000 244.0000 1.0000
57.1100 234.0000 1.0000
57.1200 264.0000 1.0000
57.1300 279.0000 1.0000
57.1400 299.0000 1.0000
57.1500 296.0000 1.0000
57.1600 268.0000 1.0000
57.1700 262.0000 1.0000
57.1800 309.0000 1.0000
57.1900 263.0000 1.0000
57.2000 286.0000 1.0000
57.2100 262.0000 1.0000
57.2200 277.0000 1.0000
57.2300 289.0000 1.0000
57.2400 288.0000 1.0000
57.2500 279.0000 1.0000
57.2600 251.0000 1.0000
57.2700 284.0000 1.0000
57.2800 272.0000 1.0000
57.2900 257.0000 1.0000
57.3000 274.0000 1.0000
57.3100 279.0000 1.0000
57.3200 259.0000 1.0000
57.3300 257.0000 1.0000
57.3400 237.0000 1.0000
57.3500 272.0000 1.0000
57.3600 293.0000 1.0000
57.3700 282.0000 1.0000
57.3800 264.0000 1.0000
57.3900 251.0000 1.0000
57.4000 279.0000 1.0000
57.4100 269.0000 1.0000
57.4200 245.0000 1.0000
57.4300 264.0000 1.0000
57.4400 279.0000 1.0000
57.4500 264.0000 1.0000
57.4600 246.0000 1.0000
57.4700 263.0000 1.0000
57.4800 275.0000 1.0000
57.4900 257.0000 1.0000
57.5000 254.0000 1.0000
57.5100 265.0000 1.0000
57.5200 266.0000 1.0000
57.5300 269.0000 1.0000
57.5400 279.0000 1.0000
57.5500 274.0000 1.0000
57.5600 259.0000 1.0000
57.5700 281.0000 1.0000
57.5800 277.0000 1.0000
57.5900 261.0000 1.0000
57.6000 265.0000 1.0000
57.6100 252.0000 1.0000
57.6200 286.0000 1.0000
57.6300 284.0000 1.0000
57.6400 261.0000 1.0000
57.6500 267.0000 1.0000
57.6600 249.0000 1.0000
57.6700 252.0000 1.0000
57.6800 282.0000 1.0000
57.6900 270.0000 1.0000
57.7000 279.0000 1.0000
57.7100 277.0000 1.0000
57.7200 280.0000 1.0000
57.7300 268.0000 1.0000
57.7400 292.0000 1.0000
57.7500 264.0000 1.0000
57.7600 295.0000 1.0000
57.7700 254.0000 1.0000
57.7800 270.0000 1.0000
57.7900 285.0000 1.0000
57.8000 268.0000 1.0000
57.8100 263.0000 1.0000
57.8200 270.0000 1.0000
57.8300 260.0000 1.0000
57.8400 292.0000 1.0000
57.8500 297.0000 1.0000
57.8600 278.0000 1.0000
57.8700 268.0000 1.0000
57.8800 262.0000 1.0000
57.8900 286.0000 1.0000
57.9000 276.0000 1.0000
57.9100 282.0000 1.0000
57.9200 249.0000 1.0000
57.9300 256.0000 1.0000
57.9400 279.0000 1.0000
57.9500 294.0000 1.0000
57.9600 239.0000 1.0000
57.9700 271.0000 1.0000
57.9800 248.0000 1.0000
57.9900 248.0000 1.0000
58.0000 260.0000 1.0000
58.0100 288.0000 1.0000
58.0200 266.0000 1.0000
58.0300 270.0000 1.0000
58.0400 280.0000 1.0000
58.0500 276.0000 1.0000
58.0600 271.0000 1.0000
58.0700 272.0000 1.0000
58.0800 239.0000 1.0000
58.0900 280.0000 1.0000
58.1000 284.0000 1.0000
58.1100 265.0000 1.0000
58.1200 245.0000 1.0000
58.1300 268.0000 1.0000
58.1400 280.0000 1.0000
58.1500 293.0000 1.0000
58.1600 276.0000 1.0000
58.1700 303.0000 1.0000
58.1800 275.0000 1.0000
58.1900 235.0000 1.0000
58.2000 274.0000 1.0000
58.2100 266.0000 1.0000
58.2200 265.0000 1.0000
58.2300 280.0000 1.0000
58.2400 272.0000 1.0000
58.2500 270.0000 1.0000
58.2600 266.0000 1.0000
58.2700 285.0000 1.0000
58.2800 247.0000 1.0000
58.2900 262.0000 1.0000
58.3000 274.0000 1.0000
58.3100 282.0000 1.0000
58.3200 260.0000 1.0000
58.3300 249.0000 1.0000
58.3400 288.0000 1.0000
58.3500 304.0000 1.0000
58.3600 239.0000 1.0000
58.3700 281.0000 1.0000
58.3800 262.0000 1.0000
58.3900 255.0000 1.0000
58.4000 277.0000 1.0000
58.4100 262.0000 1.0000
58.4200 292.0000 1.0000
58.4300 249.0000 1.0000
58.4400 277.0000 1.0000
58.4500 292.0000 1.0000
58.4600 250.0000 1.0000
58.4700 275.0000 1.0000
58.4800 291.0000 1.0000
58.4900 291.0000 1.0000
58.5000 265.0000 1.0000
58.5100 286.0000 1.0000
58.5200 273.0000 1.0000
58.5300 257.0000 1.0000
58.5400 284.0000 1.0000
58.5500 269.0000 1.0000
58.5600 288.0000 1.0000
58.5700 295.0000 1.0000
58.5800 265.0000 1.0000
58.5900 266.0000 1.0000
58.6000 279.0000 1.0000
58.6100 296.0000 1.0000
58.6200 258.0000 1.0000
58.6300 259.0000 1.0000
58.6400 286.0000 1.0000
58.6500 282.0000 1.0000
58.6600 284.0000 1.0000
58.6700 275.0000 1.0000
58.6800 272.0000 1.0000
58.6900 282.0000 1.0000
58.7000 275.0000 1.0000
58.7100 268.0000 1.0000
58.7200 280.0000 1.0000
58.7300 261.0000 1.0000
58.7400 244.0000 1.0000
58.7500 272.0000 1.0000
58.7600 261.0000 1.0000
58.7700 258.0000 1.0000
58.7800 274.0000 1.0000
58.7900 272.0000 1.0000
58.8000 275.0000 1.0000
58.8100 246.0000 1.0000
58.8200 281.0000 1.0000
58.8300 253.0000 1.0000
58.8400 283.0000 1.0000
58.8500 263.0000 1.0000
58.8600 280.0000 1.0000
58.8700 311.0000 1.0000
58.8800 256.0000 1.0000
58.8900 269.0000 1.0000
58.9000 270.0000 1.0000
58.9100 290.0000 1.0000
58.9200 268.0000 1.0000
58.9300 253.0000 1.0000
58.9400 279.0000 1.0000
58.9500 284.0000 1.0000
58.9600 278.0000 1.0000
58.9700 284.0000 1.0000
58.9800 269.0000 1.0000
58.9900 267.0000 1.0000
59.0000 299.0000 1.0000
59.0100 265.0000 1.0000
59.0200 259.0000 1.0000
59.0300 282.0000 1.0000
59.0400 265.0000 1.0000
59.0500 283.0000 1.0000
59.0600 273.0000 1.0000
59.0700 256.0000 1.0000
59.0800 282.0000 1.0000
59.0900 291.0000 1.0000
59.1000 272.0000 1.0000
59.1100 261.0000 1.0000
59.1200 263.0000 1.0000
59.1300 253.0000 1.0000
59.1400 277.0000 1.0000
59.1500 296.0000 1.0000
59.1600 267.0000 1.0000
59.1700 258.0000 1.0000
59.1800 260.0000 1.0000
59.1900 258.0000 1.0000
59.2000 270.0000 1.0000
59.2100 286.0000 1.0000
59.2200 297.0000 1.0000
59.2300 285.0000 1.0000
59.2400 261.0000 1.0000
59.2500 261.0000 1.0000
59.2600 261.0000 1.0000
59.2700 250.0000 1.0000
59.2800 270.0000 1.0000
59.2900 275.0000 1.0000
59.3000 289.0000 1.0000
59.3100 271.0000 1.0000
59.3200 263.0000 1.0000
59.3300 260.0000 1.0000
59.3400 257.0000 1.0000
59.3500 280.0000 1.0000
59.3600 276.0000 1.0000
59.3700 263.0000 1.0000
59.3800 274.0000 1.0000
59.3900 296.0000 1.0000
59.4000 270.0000 1.0000
59.4100 279.0000 1.0000
59.4200 286.0000 1.0000
59.4300 281.0000 1.0000
59.4400 276.0000 1.0000
59.4500 294.0000 1.0000
59.4600 270.0000 1.0000
59.4700 279.0000 1.0000
59.4800 285.0000 1.0000
59.4900 259.0000 1.0000
59.5000 260.0000 1.0000
59.5100 280.0000 1.0000
59.5200 246.0000 1.0000
59.5300 259.0000 1.0000
59.5400 258.0000 1.0000
59.5500 277.0000 1.0000
59.5600 280.0000 1.0000
59.5700 282.0000 1.0000
59.5800 253.0000 1.0000
59.5900 258.0000 1.0000
59.6000 261.0000 1.0000
59.6100 242.0000 1.0000
59.6200 265.0000 1.0000
59.6300 253.0000 1.0000
59.6400 251.0000 1.0000
59.6500 301.0000 1.0000
59.6600 242.0000 1.0000
59.6700 249.0000 1.0000
59.6800 256.0000 1.0000
59.6900 257.0000 1.0000
59.7000 267.0000 1.0000
59.7100 285.0000 1.0000
59.7200 258.0000 1.0000
59.7300 239.0000 1.0000
59.7400 275.0000 1.0000
59.7500 267.0000 1.0000
59.7600 282.0000 1.0000
59.7700 268.0000 1.0000
59.7800 266.0000 1.0000
59.7900 255.0000 1.0000
59.8000 265.0000 1.0000
59.8100 258.0000 1.0000
59.8200 275.0000 1.0000
59.8300 259.0000 1.0000
59.8400 246.0000 1.0000
59.8500 274.0000 1.0000
59.8600 286.0000 1.0000
59.8700 277.0000 1.0000
59.8800 252.0000 1.0000
59.8900 276.0000 1.0000
59.9000 267.0000 1.0000
59.9100 264.0000 1.0000
59.9200 295.0000 1.0000
59.9300 264.0000 1.0000
59.9400 245.0000 1.0000
59.9500 253.0000 1.0000
59.9600 267.0000 1.0000
59.9700 273.0000 1.0000
59.9800 278.0000 1.0000
59.9900 290.0000 1.0000
60.0000 277.0000 1.0000
60.0100 262.0000 1.0000
60.0200 280.0000 1.0000
60.0300 288.0000 1.0000
60.0400 265.0000 1.0000
60.0500 297.0000 1.0000
60.0600 294.0000 1.0000
60.0700 269.0000 1.0000
60.0800 271.0000 1.0000
60.0900 263.0000 1.0000
60.1000 262.0000 1.0000
60.1100 279.0000 1.0000
60.1200 288.0000 1.0000
60.1300 278.0000 1.0000
60.1400 256.0000 1.0000
60.1500 232.0000 1.0000
60.1600 279.0000 1.0000
60.1700 285.0000 1.0000
60.1800 257.0000 1.0000
60.1900 262.0000 1.0000
60.2000 263.0000 1.0000
60.2100 263.0000 1.0000
60.2200 260.0000 1.0000
60.2300 249.0000 1.0000
60.2400 229.0000 1.0000
60.2500 255.0000 1.0000
60.2600 272.0000 1.0000
60.2700 248.0000 1.0000
60.2800 257.0000 1.0000
60.2900 259.0000 1.0000
60.3000 272.0000 1.0000
60.3100 237.0000 1.0000
60.3200 256.0000 1.0000
60.3300 276.0000 1.0000
60.3400 277.0000 1.0000
60.3500 258.0000 1.0000
60.3600 255.0000 1.0000
60.3700 270.0000 1.0000
60.3800 305.0000 1.0000
60.3900 289.0000 1.0000
60.4000 264.0000 1.0000
60.4100 266.0000 1.0000
60.4200 277.0000 1.0000
60.4300 250.0000 1.0000
60.4400 265.0000 1.0000
60.4500 269.0000 1.0000
60.4600 273.0000 1.0000
60.4700 274.0000 1.0000
60.4800 252.0000 1.0000
60.4900 265.0000 1.0000
60.5000 287.0000 1.0000
60.5100 281.0000 1.0000
60.5200 254.0000 1.0000
60.5300 249.0000 1.0000
60.5400 247.0000 1.0000
60.5500 249.0000 1.0000
60.5600 277.0000 1.0000
60.5700 266.0000 1.0000
60.5800 257.0000 1.0000
60.5900 272.0000 1.0000
60.6000 285.0000 1.0000
60.6100 262.0000 1.0000
60.6200 256.0000 1.0000
60.6300 269.0000 1.0000
60.6400 258.0000 1.0000
60.6500 263.0000 1.0000
60.6600 252.0000 1.0000
60.6700 251.0000 1.0000
60.6800 262.0000 1.0000
60.6900 268.0000 1.0000
60.7000 267.0000 1.0000
60.7100 258.0000 1.0000
60.7200 267.0000 1.0000
60.7300 254.0000 1.0000
60.7400 275.0000 1.0000
60.7500 276.0000 1.0000
60.7600 259.0000 1.0000
60.7700 284.0000 1.0000
60.7800 287.0000 1.0000
60.7900 296.0000 1.0000
60.8000 257.0000 1.0000
60.8100 265.0000 1.0000
60.8200 281.0000 1.0000
60.8300 261.0000 1.0000
60.8400 253.0000 1.0000
60.8500 271.0000 1.0000
60.8600 280.0000 1.0000
60.8700 266.0000 1.0000
60.8800 282.0000 1.0000
60.8900 282.0000 1.0000
60.9000 282.0000 1.0000
60.9100 275.0000 1.0000
60.9200 252.0000 1.0000
60.9300 280.0000 1.0000
60.9400 262.0000 1.0000
60.9500 265.0000 1.0000
60.9600 272.0000 1.0000
60.9700 305.0000 1.0000
60.9800 275.0000 1.0000
60.9900 280.0000 1.0000
61.0000 277.0000 1.0000
61.0100 282.0000 1.0000
61.0200 289.0000 1.0000
61.0300 266.0000 1.0000
61.0400 254.0000 1.0000
61.0500 284.0000 1.0000
61.0600 259.0000 1.0000
61.0700 267.0000 1.0000
61.0800 286.0000 1.0000
61.0900 281.0000 1.0000
61.1000 253.0000 1.0000
61.1100 251.0000 1.0000
61.1200 265.0000 1.0000
61.1300 255.0000 1.0000
61.1400 264.0000 1.0000
61.1500 238.0000 1.0000
61.1600 262.0000 1.0000
61.1700 265.0000 1.0000
61.1800 278.0000 1.0000
61.1900 265.0000 1.0000
61.2000 251.0000 1.0000
61.2100 260.0000 1.0000
61.2200 262.0000 1.0000
61.2300 263.0000 1.0000
61.2400 244.0000 1.0000
61.2500 268.0000 1.0000
61.2600 263.0000 1.0000
61.2700 282.0000 1.0000
61.2800 265.0000 1.0000
61.2900 259.0000 1.0000
61.3000 268.0000 1.0000
61.3100 267.0000 1.0000
61.3200 270.0000 1.0000
61.3300 279.0000 1.0000
61.3400 271.0000 1.0000
61.3500 298.0000 1.0000
61.3600 293.0000 1.0000
61.3700 267.0000 1.0000
61.3800 277.0000 1.0000
61.3900 284.0000 1.0000
61.4000 284.0000 1.0000
61.4100 268.0000 1.0000
61.4200 267.0000 1.0000
61.4300 275.0000 1.0000
61.4400 264.0000 1.0000
61.4500 266.0000 1.0000
61.4600 264.0000 1.0000
61.4700 270.0000 1.0000
61.4800 257.0000 1.0000
61.4900 264.0000 1.0000
61.5000 276.0000 1.0000
61.5100 282.0000 1.0000
61.5200 274.0000 1.0000
61.5300 258.0000 1.0000
61.5400 279.0000 1.0000
61.5500 246.0000 1.0000
61.5600 271.0000 1.0000
61.5700 292.0000 1.0000
61.5800 273.0000 1.0000
61.5900 270.0000 1.0000
61.6000 256.0000 1.0000
61.6100 273.0000 1.0000
61.6200 268.0000 1.0000
61.6300 276.0000 1.0000
61.6400 308.0000 1.0000
61.6500 302.0000 1.0000
61.6600 269.0000 1.0000
61.6700 263.0000 1.0000
61.6800 283.0000 1.0000
61.6900 275.0000 1.0000
61.7000 302.0000 1.0000
61.7100 276.0000 1.0000
61.7200 280.0000 1.0000
61.7300 269.0000 1.0000
61.7400 233.0000 1.0000
61.7500 266.0000 1.0000
61.7600 307.0000 1.0000
61.7700 299.0000 1.0000
61.7800 263.0000 1.0000
61.7900 275.0000 1.0000
61.8000 287.0000 1.0000
61.8100 305.0000 1.0000
61.8200 285.0000 1.0000
61.8300 302.0000 1.0000
61.8400 289.0000 1.0000
61.8500 287.0000 1.0000
61.8600 313.0000 1.0000
61.8700 302.0000 1.0000
61.8800 275.0000 1.0000
61.8900 300.0000 1.0000
61.9000 297.0000 1.0000
61.9100 309.0000 1.0000
61.9200 304.0000 1.0000
61.9300 310.0000 1.0000
61.9400 324.0000 1.0000
61.9500 331.0000 1.0000
61.9600 288.0000 1.0000
61.9700 302.0000 1.0000
61.9800 322.0000 1.0000
61.9900 328.0000 1.0000
62.0000 326.0000 1.0000
62.0100 321.0000 1.0000
62.0200 340.0000 1.0000
62.0300 353.0000 1.0000
62.0400 389.0000 1.0000
62.0500 367.0000 1.0000
62.0600 353.0000 1.0000
62.0700 355.0000 1.0000
62.0800 380.0000 1.0000
62.0900 389.0000 1.0000
62.1000 413.0000 1.0000
62.1100 404.0000 1.0000
62.1200 391.0000 1.0000
62.1300 423.0000 1.0000
62.1400 411.0000 1.0000
62.1500 457.0000 1.0000
62.1600 463.0000 1.0000
62.1700 479.0000 1.0000
62.1800 470.0000 1.0000
62.1900 489.0000 1.0000
62.2000 493.0000 1.0000
62.2100 517.0000 1.0000
62.2200 561.0000 1.0000
62.2300 534.0000 1.0000
62.2400 546.0000 1.0000
62.2500 585.0000 1.0000
62.2600 550.0000 1.0000
62.2700 605.0000 1.0000
62.2800 559.0000 1.0000
62.2900 580.0000 1.0000
62.3000 574.0000 1.0000
62.3100 565.0000 1.0000
62.3200 599.0000 1.0000
62.3300 569.0000 1.0000
62.3400 603.0000 1.0000
62.3500 581.0000 1.0000
62.3600 560.0000 1.0000
62.3700 574.0000 1.0000
62.3800 569.0000 1.0000
62.3900 567.0000 1.0000
62.4000 522.0000 1.0000
62.4100 545.0000 1.0000
62.4200 524.0000 1.0000
62.4300 533.0000 1.0000
62.4400 544.0000 1.0000
62.4500 550.0000 1.0000
62.4600 517.0000 1.0000
62.4700 541.0000 1.0000
62.4800 509.0000 1.0000
62.4900 487.0000 1.0000
62.5000 519.0000 1.0000
62.5100 461.0000 1.0000
62.5200 470.0000 1.0000
62.5300 472.0000 1.0000
62.5400 435.0000 1.0000
62.5500 418.0000 1.0000
62.5600 426.0000 1.0000
62.5700 427.0000 1.0000
62.5800 406.0000 1.0000
62.5900 376.0000 1.0000
62.6000 383.0000 1.0000
62.6100 384.0000 1.0000
62.6200 379.0000 1.0000
62.6300 373.0000 1.0000
62.6400 378.0000 1.0000
62.6500 347.0000 1.0000
62.6600 372.0000 1.0000
62.6700 362.0000 1.0000
62.6800 361.0000 1.0000
62.6900 348.0000 1.0000
62.7000 357.0000 1.0000
62.7100 325.0000 1.0000
62.7200 336.0000 1.0000
62.7300 357.0000 1.0000
62.7400 339.0000 1.0000
62.7500 332.0000 1.0000
62.7600 309.0000 1.0000
62.7700 306.0000 1.0000
62.7800 293.0000 1.0000
62.7900 323.0000 1.0000
62.8000 297.0000 1.0000
62.8100 316.0000 1.0000
62.8200 294.0000 1.0000
62.8300 286.0000 1.0000
62.8400 296.0000 1.0000
62.8500 311.0000 1.0000
62.8600 334.0000 1.0000
62.8700 302.0000 1.0000
62.8800 316.0000 1.0000
62.8900 295.0000 1.0000
62.9000 310.0000 1.0000
62.9100 290.0000 1.0000
62.9200 285.0000 1.0000
62.9300 284.0000 1.0000
62.9400 282.0000 1.0000
62.9500 276.0000 1.0000
62.9600 297.0000 1.0000
62.9700 312.0000 1.0000
62.9800 314.0000 1.0000
62.9900 290.0000 1.0000
63.0000 274.0000 1.0000
63.0100 306.0000 1.0000
63.0200 296.0000 1.0000
63.0300 306.0000 1.0000
63.0400 278.0000 1.0000
63.0500 301.0000 1.0000
63.0600 311.0000 1.0000
63.0700 320.0000 1.0000
63.0800 302.0000 1.0000
63.0900 273.0000 1.0000
63.1000 295.0000 1.0000
63.1100 296.0000 1.0000
63.1200 295.0000 1.0000
63.1300 279.0000 1.0000
63.1400 301.0000 1.0000
63.1500 303.0000 1.0000
63.1600 314.0000 1.0000
63.1700 298.0000 1.0000
63.1800 300.0000 1.0000
63.1900 290.0000 1.0000
63.2000 264.0000 1.0000
63.2100 268.0000 1.0000
63.2200 289.0000 1.0000
63.2300 280.0000 1.0000
63.2400 267.0000 1.0000
63.2500 296.0000 1.0000
63.2600 255.0000 1.0000
63.2700 257.0000 1.0000
63.2800 272.0000 1.0000
63.2900 264.0000 1.0000
63.3000 264.0000 1.0000
63.3100 294.0000 1.0000
63.3200 307.0000 1.0000
63.3300 279.0000 1.0000
63.3400 268.0000 1.0000
63.3500 298.0000 1.0000
63.3600 282.0000 1.0000
63.3700 280.0000 1.0000
63.3800 255.0000 1.0000
63.3900 270.0000 1.0000
63.4000 274.0000 1.0000
63.4100 282.0000 1.0000
63.4200 275.0000 1.0000
63.4300 268.0000 1.0000
63.4400 259.0000 1.0000
63.4500 270.0000 1.0000
63.4600 260.0000 1.0000
63.4700 273.0000 1.0000
63.4800 273.0000 1.0000
63.4900 254.0000 1.0000
63.5000 268.0000 1.0000
63.5100 259.0000 1.0000
63.5200 282.0000 1.0000
63.5300 279.0000 1.0000
63.5400 278.0000 1.0000
63.5500 279.0000 1.0000
63.5600 249.0000 1.0000
63.5700 290.0000 1.0000
63.5800 264.0000 1.0000
63.5900 252.0000 1.0000
63.6000 282.0000 1.0000
63.6100 263.0000 1.0000
63.6200 272.0000 1.0000
63.6300 303.0000 1.0000
63.6400 281.0000 1.0000
63.6500 295.0000 1.0000
63.6600 276.0000 1.0000
63.6700 270.0000 1.0000
63.6800 270.0000 1.0000
63.6900 286.0000 1.0000
63.7000 270.0000 1.0000
63.7100 287.0000 1.0000
63.7200 263.0000 1.0000
63.7300 272.0000 1.0000
63.7400 268.0000 1.0000
63.7500 270.0000 1.0000
63.7600 268.0000 1.0000
63.7700 267.0000 1.0000
63.7800 264.0000 1.0000
63.7900 241.0000 1.0000
63.8000 253.0000 1.0000
63.8100 271.0000 1.0000
63.8200 255.0000 1.0000
63.8300 275.0000 1.0000
63.8400 271.0000 1.0000
63.8500 272.0000 1.0000
63.8600 274.0000 1.0000
63.8700 290.0000 1.0000
63.8800 279.0000 1.0000
63.8900 271.0000 1.0000
63.9000 289.0000 1.0000
63.9100 283.0000 1.0000
63.9200 250.0000 1.0000
63.9300 262.0000 1.0000
63.9400 284.0000 1.0000
63.9500 284.0000 1.0000
63.9600 259.0000 1.0000
63.9700 255.0000 1.0000
63.9800 282.0000 1.0000
63.9900 282.0000 1.0000
64.0000 236.0000 1.0000
64.0100 277.0000 1.0000
64.0200 284.0000 1.0000
64.0300 288.0000 1.0000
64.0400 277.0000 1.0000
64.0500 285.0000 1.0000
64.0600 283.0000 1.0000
64.0700 257.0000 1.0000
64.0800 270.0000 1.0000
64.0900 258.0000 1.0000
64.1000 275.0000 1.0000
64.1100 292.0000 1.0000
64.1200 267.0000 1.0000
64.1300 272.0000 1.0000
64.1400 265.0000 1.0000
64.1500 277.0000 1.0000
64.1600 289.0000 1.0000
64.1700 281.0000 1.0000
64.1800 309.0000 1.0000
64.1900 294.0000 1.0000
64.2000 260.0000 1.0000
64.2100 305.0000 1.0000
64.2200 291.0000 1.0000
64.2300 255.0000 1.0000
64.2400 262.0000 1.0000
64.2500 249.0000 1.0000
64.2600 270.0000 1.0000
64.2700 305.0000 1.0000
64.2800 275.0000 1.0000
64.2900 303.0000 1.0000
64.3000 268.0000 1.0000
64.3100 271.0000 1.0000
64.3200 264.0000 1.0000
64.3300 294.0000 1.0000
64.3400 282.0000 1.0000
64.3500 280.0000 1.0000
64.3600 285.0000 1.0000
64.3700 287.0000 1.0000
64.3800 276.0000 1.0000
64.3900 266.0000 1.0000
64.4000 285.0000 1.0000
64.4100 262.0000 1.0000
64.4200 286.0000 1.0000
64.4300 273.0000 1.0000
64.4400 284.0000 1.0000
64.4500 274.0000 1.0000
64.4600 282.0000 1.0000
64.4700 314.0000 1.0000
64.4800 297.0000 1.0000
64.4900 313.0000 1.0000
64.5000 314.0000 1.0000
64.5100 329.0000 1.0000
64.5200 305.0000 1.0000
64.5300 306.0000 1.0000
64.5400 303.0000 1.0000
64.5500 303.0000 1.0000
64.5600 326.0000 1.0000
64.5700 319.0000 1.0000
64.5800 302.0000 1.0000
64.5900 312.0000 1.0000
64.6000 289.0000 1.0000
64.6100 333.0000 1.0000
64.6200 334.0000 1.0000
64.6300 345.0000 1.0000
64.6400 316.0000 1.0000
64.6500 353.0000 1.0000
64.6600 322.0000 1.0000
64.6700 315.0000 1.0000
64.6800 332.0000 1.0000
64.6900 350.0000 1.0000
64.7000 321.0000 1.0000
64.7100 337.0000 1.0000
64.7200 339.0000 1.0000
64.7300 319.0000 1.0000
64.7400 343.0000 1.0000
64.7500 352.0000 1.0000
64.7600 349.0000 1.0000
64.7700 340.0000 1.0000
64.7800 376.0000 1.0000
64.7900 325.0000 1.0000
64.8000 340.0000 1.0000
64.8100 350.0000 1.0000
64.8200 356.0000 1.0000
64.8300 363.0000 1.0000
64.8400 326.0000 1.0000
64.8500 315.0000 1.0000
64.8600 325.0000 1.0000
64.8700 313.0000 1.0000
64.8800 317.0000 1.0000
64.8900 336.0000 1.0000
64.9000 316.0000 1.0000
64.9100 315.0000 1.0000
64.9200 294.0000 1.0000
64.9300 310.0000 1.0000
64.9400 326.0000 1.0000
64.9500 331.0000 1.0000
64.9600 324.0000 1.0000
64.9700 301.0000 1.0000
64.9800 317.0000 1.0000
64.9900 297.0000 1.0000
65.0000 314.0000 1.0000
65.0100 306.0000 1.0000
65.0200 273.0000 1.0000
65.0300 294.0000 1.0000
65.0400 298.0000 1.0000
65.0500 308.0000 1.0000
65.0600 299.0000 1.0000
65.0700 312.0000 1.0000
65.0800 302.0000 1.0000
65.0900 297.0000 1.0000
65.1000 301.0000 1.0000
65.1100 287.0000 1.0000
65.1200 317.0000 1.0000
65.1300 300.0000 1.0000
65.1400 273.0000 1.0000
65.1500 286.0000 1.0000
65.1600 285.0000 1.0000
65.1700 276.0000 1.0000
65.1800 288.0000 1.0000
65.1900 280.0000 1.0000
65.2000 311.0000 1.0000
65.2100 278.0000 1.0000
65.2200 290.0000 1.0000
65.2300 259.0000 1.0000
65.2400 274.0000 1.0000
65.2500 284.0000 1.0000
65.2600 267.0000 1.0000
65.2700 282.0000 1.0000
65.2800 284.0000 1.0000
65.2900 299.0000 1.0000
65.3000 302.0000 1.0000
65.3100 261.0000 1.0000
65.3200 306.0000 1.0000
65.3300 308.0000 1.0000
65.3400 304.0000 1.0000
65.3500 276.0000 1.0000
65.3600 258.0000 1.0000
65.3700 264.0000 1.0000
65.3800 296.0000 1.0000
65.3900 293.0000 1.0000
65.4000 270.0000 1.0000
65.4100 305.0000 1.0000
65.4200 275.0000 1.0000
65.4300 291.0000 1.0000
65.4400 295.0000 1.0000
65.4500 275.0000 1.0000
65.4600 270.0000 1.0000
65.4700 281.0000 1.0000
65.4800 286.0000 1.0000
65.4900 290.0000 1.0000
65.5000 318.0000 1.0000
65.5100 275.0000 1.0000
65.5200 290.0000 1.0000
65.5300 263.0000 1.0000
65.5400 289.0000 1.0000
65.5500 296.0000 1.0000
65.5600 302.0000 1.0000
65.5700 319.0000 1.0000
65.5800 287.0000 1.0000
65.5900 258.0000 1.0000
65.6000 311.0000 1.0000
65.6100 313.0000 1.0000
65.6200 309.0000 1.0000
65.6300 273.0000 1.0000
65.6400 287.0000 1.0000
65.6500 311.0000 1.0000
65.6600 275.0000 1.0000
65.6700 284.0000 1.0000
65.6800 269.0000 1.0000
65.6900 269.0000 1.0000
65.7000 281.0000 1.0000
65.7100 284.0000 1.0000
65.7200 306.0000 1.0000
65.7300 280.0000 1.0000
65.7400 280.0000 1.0000
65.7500 299.0000 1.0000
65.7600 304.0000 1.0000
65.7700 299.0000 1.0000
65.7800 306.0000 1.0000
65.7900 308.0000 1.0000
65.8000 307.0000 1.0000
65.8100 328.0000 1.0000
65.8200 301.0000 1.0000
65.8300 309.0000 1.0000
65.8400 292.0000 1.0000
65.8500 316.0000 1.0000
65.8600 336.0000 1.0000
65.8700 306.0000 1.0000
65.8800 338.0000 1.0000
65.8900 341.0000 1.0000
65.9000 319.0000 1.0000
65.9100 345.0000 1.0000
65.9200 375.0000 1.0000
65.9300 367.0000 1.0000
65.9400 368.0000 1.0000
65.9500 367.0000 1.0000
65.9600 355.0000 1.0000
65.9700 360.0000 1.0000
65.9800 380.0000 1.0000
65.9900 402.0000 1.0000
66.0000 371.0000 1.0000
66.0100 395.0000 1.0000
66.0200 397.0000 1.0000
66.0300 443.0000 1.0000
66.0400 441.0000 1.0000
66.0500 468.0000 1.0000
66.0600 458.0000 1.0000
66.0700 492.0000 1.0000
66.0800 483.0000 1.0000
66.0900 496.0000 1.0000
66.1000 527.0000 1.0000
66.1100 559.0000 1.0000
66.1200 599.0000 1.0000
66.1300 639.0000 1.0000
66.1400 673.0000 1.0000
66.1500 709.0000 1.0000
66.1600 736.0000 1.0000
66.1700 717.0000 1.0000
66.1800 804.0000 1.0000
66.1900 849.0000 1.0000
66.2000 953.0000 1.0000
66.2100 977.0000 1.0000
66.2200 1028.0000 1.0000
66.2300 1056.0000 1.0000
66.2400 1055.0000 1.0000
66.2500 1117.0000 1.0000
66.2600 1110.0000 1.0000
66.2700 1075.0000 1.0000
66.2800 1134.0000 1.0000
66.2900 1104.0000 1.0000
66.3000 1123.0000 1.0000
66.3100 1056.0000 1.0000
66.3200 1091.0000 1.0000
66.3300 1016.0000 1.0000
66.3400 958.0000 1.0000
66.3500 1005.0000 1.0000
66.3600 948.0000 1.0000
66.3700 938.0000 1.0000
66.3800 1021.0000 1.0000
66.3900 954.0000 1.0000
66.4000 955.0000 1.0000
66.4100 911.0000 1.0000
66.4200 872.0000 1.0000
66.4300 918.0000 1.0000
66.4400 898.0000 1.0000
66.4500 901.0000 1.0000
66.4600 927.0000 1.0000
66.4700 859.0000 1.0000
66.4800 811.0000 1.0000
66.4900 747.0000 1.0000
66.5000 726.0000 1.0000
66.5100 702.0000 1.0000
66.5200 740.0000 1.0000
66.5300 675.0000 1.0000
66.5400 656.0000 1.0000
66.5500 610.0000 1.0000
66.5600 603.0000 1.0000
66.5700 572.0000 1.0000
66.5800 517.0000 1.0000
66.5900 512.0000 1.0000
66.6000 502.0000 1.0000
66.6100 516.0000 1.0000
66.6200 462.0000 1.0000
66.6300 467.0000 1.0000
66.6400 432.0000 1.0000
66.6500 416.0000 1.0000
66.6600 429.0000 1.0000
66.6700 421.0000 1.0000
66.6800 399.0000 1.0000
66.6900 383.0000 1.0000
66.7000 366.0000 1.0000
66.7100 363.0000 1.0000
66.7200 356.0000 1.0000
66.7300 343.0000 1.0000
66.7400 339.0000 1.0000
66.7500 354.0000 1.0000
66.7600 332.0000 1.0000
66.7700 333.0000 1.0000
66.7800 313.0000 1.0000
66.7900 333.0000 1.0000
66.8000 318.0000 1.0000
66.8100 302.0000 1.0000
66.8200 312.0000 1.0000
66.8300 311.0000 1.0000
66.8400 296.0000 1.0000
66.8500 328.0000 1.0000
66.8600 325.0000 1.0000
66.8700 301.0000 1.0000
66.8800 312.0000 1.0000
66.8900 327.0000 1.0000
66.9000 306.0000 1.0000
66.9100 307.0000 1.0000
66.9200 278.0000 1.0000
66.9300 275.0000 1.0000
66.9400 284.0000 1.0000
66.9500 296.0000 1.0000
66.9600 275.0000 1.0000
66.9700 284.0000 1.0000
66.9800 270.0000 1.0000
66.9900 260.0000 1.0000
67.0000 291.0000 1.0000
67.0100 294.0000 1.0000
67.0200 266.0000 1.0000
67.0300 272.0000 1.0000
67.0400 289.0000 1.0000
67.0500 297.0000 1.0000
67.0600 259.0000 1.0000
67.0700 272.0000 1.0000
67.0800 272.0000 1.0000
67.0900 269.0000 1.0000
67.1000 286.0000 1.0000
67.1100 287.0000 1.0000
67.1200 281.0000 1.0000
67.1300 268.0000 1.0000
67.1400 280.0000 1.0000
67.1500 256.0000 1.0000
67.1600 264.0000 1.0000
67.1700 288.0000 1.0000
67.1800 296.0000 1.0000
67.1900 252.0000 1.0000
67.2000 269.0000 1.0000
67.2100 249.0000 1.0000
67.2200 251.0000 1.0000
67.2300 261.0000 1.0000
67.2400 286.0000 1.0000
67.2500 263.0000 1.0000
67.2600 275.0000 1.0000
67.2700 261.0000 1.0000
67.2800 242.0000 1.0000
67.2900 267.0000 1.0000
67.3000 280.0000 1.0000
67.3100 255.0000 1.0000
67.3200 250.0000 1.0000
67.3300 235.0000 1.0000
67.3400 253.0000 1.0000
67.3500 258.0000 1.0000
67.3600 283.0000 1.0000
67.3700 259.0000 1.0000
67.3800 262.0000 1.0000
67.3900 273.0000 1.0000
67.4000 246.0000 1.0000
67.4100 243.0000 1.0000
67.4200 273.0000 1.0000
67.4300 272.0000 1.0000
67.4400 257.0000 1.0000
67.4500 247.0000 1.0000
67.4600 266.0000 1.0000
67.4700 295.0000 1.0000
67.4800 254.0000 1.0000
67.4900 252.0000 1.0000
67.5000 254.0000 1.0000
67.5100 246.0000 1.0000
67.5200 269.0000 1.0000
67.5300 260.0000 1.0000
67.5400 259.0000 1.0000
67.5500 267.0000 1.0000
67.5600 255.0000 1.0000
67.5700 259.0000 1.0000
67.5800 258.0000 1.0000
67.5900 239.0000 1.0000
67.6000 239.0000 1.0000
67.6100 243.0000 1.0000
67.6200 269.0000 1.0000
67.6300 244.0000 1.0000
67.6400 254.0000 1.0000
67.6500 249.0000 1.0000
67.6600 251.0000 1.0000
67.6700 264.0000 1.0000
67.6800 267.0000 1.0000
67.6900 238.0000 1.0000
67.7000 262.0000 1.0000
67.7100 231.0000 1.0000
67.7200 260.0000 1.0000
67.7300 240.0000 1.0000
67.7400 255.0000 1.0000
67.7500 263.0000 1.0000
67.7600 261.0000 1.0000
67.7700 230.0000 1.0000
67.7800 256.0000 1.0000
67.7900 242.0000 1.0000
67.8000 263.0000 1.0000
67.8100 226.0000 1.0000
67.8200 248.0000 1.0000
67.8300 243.0000 1.0000
67.8400 245.0000 1.0000
67.8500 247.0000 1.0000
67.8600 250.0000 1.0000
67.8700 239.0000 1.0000
67.8800 247.0000 1.0000
67.8900 253.0000 1.0000
67.9000 244.0000 1.0000
67.9100 265.0000 1.0000
67.9200 258.0000 1.0000
67.9300 259.0000 1.0000
67.9400 249.0000 1.0000
67.9500 221.0000 1.0000
67.9600 261.0000 1.0000
67.9700 225.0000 1.0000
67.9800 247.0000 1.0000
67.9900 261.0000 1.0000
68.0000 260.0000 1.0000
68.0100 236.0000 1.0000
68.0200 229.0000 1.0000
68.0300 244.0000 1.0000
68.0400 253.0000 1.0000
68.0500 240.0000 1.0000
68.0600 224.0000 1.0000
68.0700 222.0000 1.0000
68.0800 271.0000 1.0000
68.0900 237.0000 1.0000
68.1000 257.0000 1.0000
68.1100 243.0000 1.0000
68.1200 228.0000 1.0000
68.1300 238.0000 1.0000
68.1400 242.0000 1.0000
68.1500 243.0000 1.0000
68.1600 285.0000 1.0000
68.1700 257.0000 1.0000
68.1800 260.0000 1.0000
68.1900 271.0000 1.0000
68.2000 243.0000 1.0000
68.2100 234.0000 1.0000
68.2200 233.0000 1.0000
68.2300 246.0000 1.0000
68.2400 237.0000 1.0000
68.2500 261.0000 1.0000
68.2600 236.0000 1.0000
68.2700 239.0000 1.0000
68.2800 257.0000 1.0000
68.2900 252.0000 1.0000
68.3000 238.0000 1.0000
68.3100 241.0000 1.0000
68.3200 229.0000 1.0000
68.3300 271.0000 1.0000
68.3400 238.0000 1.0000
68.3500 253.0000 1.0000
68.3600 247.0000 1.0000
68.3700 255.0000 1.0000
68.3800 241.0000 1.0000
68.3900 242.0000 1.0000
68.4000 221.0000 1.0000
68.4100 240.0000 1.0000
68.4200 275.0000 1.0000
68.4300 249.0000 1.0000
68.4400 236.0000 1.0000
68.4500 244.0000 1.0000
68.4600 228.0000 1.0000
68.4700 265.0000 1.0000
68.4800 233.0000 1.0000
68.4900 261.0000 1.0000
68.5000 250.0000 1.0000
68.5100 243.0000 1.0000
68.5200 255.0000 1.0000
68.5300 252.0000 1.0000
68.5400 225.0000 1.0000
68.5500 239.0000 1.0000
68.5600 241.0000 1.0000
68.5700 247.0000 1.0000
68.5800 219.0000 1.0000
68.5900 266.0000 1.0000
68.6000 262.0000 1.0000
68.6100 230.0000 1.0000
68.6200 261.0000 1.0000
68.6300 248.0000 1.0000
68.6400 219.0000 1.0000
68.6500 221.0000 1.0000
68.6600 246.0000 1.0000
68.6700 228.0000 1.0000
68.6800 233.0000 1.0000
68.6900 254.0000 1.0000
68.7000 245.0000 1.0000
68.7100 263.0000 1.0000
68.7200 277.0000 1.0000
68.7300 237.0000 1.0000
68.7400 247.0000 1.0000
68.7500 228.0000 1.0000
68.7600 233.0000 1.0000
68.7700 227.0000 1.0000
68.7800 220.0000 1.0000
68.7900 218.0000 1.0000
68.8000 250.0000 1.0000
68.8100 253.0000 1.0000
68.8200 241.0000 1.0000
68.8300 263.0000 1.0000
68.8400 235.0000 1.0000
68.8500 238.0000 1.0000
68.8600 232.0000 1.0000
68.8700 277.0000 1.0000
68.8800 247.0000 1.0000
68.8900 264.0000 1.0000
68.9000 263.0000 1.0000
68.9100 242.0000 1.0000
68.9200 230.0000 1.0000
68.9300 235.0000 1.0000
68.9400 239.0000 1.0000
68.9500 225.0000 1.0000
68.9600 244.0000 1.0000
68.9700 233.0000 1.0000
68.9800 250.0000 1.0000
68.9900 244.0000 1.0000
69.0000 228.0000 1.0000
69.0100 256.0000 1.0000
69.0200 245.0000 1.0000
69.0300 249.0000 1.0000
69.0400 259.0000 1.0000
69.0500 235.0000 1.0000
69.0600 245.0000 1.0000
69.0700 242.0000 1.0000
69.0800 217.0000 1.0000
69.0900 239.0000 1.0000
69.1000 243.0000 1.0000
69.1100 231.0000 1.0000
69.1200 265.0000 1.0000
69.1300 242.0000 1.0000
69.1400 244.0000 1.0000
69.1500 244.0000 1.0000
69.1600 236.0000 1.0000
69.1700 253.0000 1.0000
69.1800 217.0000 1.0000
69.1900 219.0000 1.0000
69.2000 237.0000 1.0000
69.2100 242.0000 1.0000
69.2200 249.0000 1.0000
69.2300 243.0000 1.0000
69.2400 249.0000 1.0000
69.2500 234.0000 1.0000
69.2600 243.0000 1.0000
69.2700 244.0000 1.0000
69.2800 245.0000 1.0000
69.2900 239.0000 1.0000
69.3000 233.0000 1.0000
69.3100 245.0000 1.0000
69.3200 223.0000 1.0000
69.3300 235.0000 1.0000
69.3400 241.0000 1.0000
69.3500 242.0000 1.0000
69.3600 241.0000 1.0000
69.3700 237.0000 1.0000
69.3800 240.0000 1.0000
69.3900 241.0000 1.0000
69.4000 244.0000 1.0000
69.4100 249.0000 1.0000
69.4200 239.0000 1.0000
69.4300 245.0000 1.0000
69.4400 251.0000 1.0000
69.4500 261.0000 1.0000
69.4600 266.0000 1.0000
69.4700 235.0000 1.0000
69.4800 261.0000 1.0000
69.4900 250.0000 1.0000
69.5000 245.0000 1.0000
69.5100 256.0000 1.0000
69.5200 261.0000 1.0000
69.5300 255.0000 1.0000
69.5400 275.0000 1.0000
69.5500 254.0000 1.0000
69.5600 224.0000 1.0000
69.5700 231.0000 1.0000
69.5800 221.0000 1.0000
69.5900 237.0000 1.0000
69.6000 237.0000 1.0000
69.6100 246.0000 1.0000
69.6200 238.0000 1.0000
69.6300 228.0000 1.0000
69.6400 227.0000 1.0000
69.6500 231.0000 1.0000
69.6600 238.0000 1.0000
69.6700 261.0000 1.0000
69.6800 225.0000 1.0000
69.6900 234.0000 1.0000
69.7000 223.0000 1.0000
69.7100 236.0000 1.0000
69.7200 228.0000 1.0000
69.7300 241.0000 1.0000
69.7400 252.0000 1.0000
69.7500 211.0000 1.0000
69.7600 227.0000 1.0000
69.7700 227.0000 1.0000
69.7800 239.0000 1.0000
69.7900 229.0000 1.0000
69.8000 247.0000 1.0000
69.8100 232.0000 1.0000
69.8200 259.0000 1.0000
69.8300 245.0000 1.0000
69.8400 248.0000 1.0000
69.8500 258.0000 1.0000
69.8600 234.0000 1.0000
69.8700 236.0000 1.0000
69.8800 265.0000 1.0000
69.8900 231.0000 1.0000
69.9000 253.0000 1.0000
69.9100 257.0000 1.0000
69.9200 252.0000 1.0000
69.9300 235.0000 1.0000
69.9400 217.0000 1.0000
69.9500 252.0000 1.0000
69.9600 229.0000 1.0000
69.9700 224.0000 1.0000
69.9800 250.0000 1.0000
69.9900 240.0000 1.0000
70.0000 234.0000 1.0000
*RAS_INT_END
*RAS_TEMPERATURE_START
*RAS_TEMPERATURE_END
*RAS_DATA_END
