*RAS_DATA_START
*RAS_HEADER_START
*DISP_FMT_X "%.2f"
*DISP_FMT_Y "%.0f"
*DISP_FULLSCALE "14520.0000000000"
*DISP_LINE_COLOR "255.0000000000"
*DISP_LINE_STYLE "0.0000000000"
*DISP_LINE_WIDTH "0.2500000000"
*DISP_NOTE "測定データ-7"
*DISP_OFFSET_Y "0.0000000000"
*DISP_PEAKSEARCH_UNIT_Y "cps"
*DISP_RANGE_BOTTOM "0.0000000000"
*DISP_RANGE_LEFT "20.0000000000"
*DISP_RANGE_LOGCUTOFF "0.0100000000"
*DISP_RANGE_RIGHT "70.0000000000"
*DISP_RANGE_TOP "14520.0000000000"
*DISP_SCALE_MODE_Y "0.0000000000"
*DISP_TAB_NAME "2θ/θ"
*DISP_TITLE_Y "強度"
*DISP_UNIT_Y "cps"
*DISP_WINDOW_NAME "MSG_MACROENGINE"
*FILE_COMMENT " "
*FILE_MD5 ""
*FILE_MEMO " "
*FILE_OPERATOR "Administrator"
*FILE_SAMPLE " "
*FILE_TYPE "RAS_RAW"
*FILE_USERGROUP "システムマネージャ"
*FILE_VERSION "1.0000000000"
*HW_ATTACHMENT_ID "ATT0025"
*HW_ATTACHMENT_NAME "標準|Standard"
*HW_COUNTER_ID-0 "CUT0025"
*HW_COUNTER_ID-1 "CUT0020"
*HW_COUNTER_ID-2 "CUT0020"
*HW_COUNTER_ID-3 "CSL0021"
*HW_COUNTER_ID-4 "CMC0021"
*HW_COUNTER_NAME-0 "D/teX Ultra|D/teX Ultra"
*HW_COUNTER_NAME-1 "None|None"
*HW_COUNTER_NAME-2 "None|None"
*HW_COUNTER_NAME-3 "BBM|BBM"
*HW_COUNTER_NAME-4 "検出器モノクロメータ|Detector monochromator"
*HW_COUNTER_SELECT_NAME "D/teX Ultra|D/teX Ultra"
*HW_GONIOMETER_ID "GON0023"
*HW_GONIOMETER_NAME "SmartLab|SmartLab"
*HW_GONIOMETER_RADIUS-0 "90.0"
*HW_GONIOMETER_RADIUS-1 "114.0"
*HW_GONIOMETER_RADIUS-2 "190.0"
*HW_GONIOMETER_RADIUS-3 "300.0"
*HW_GONIOMETER_RADIUS-4 "187.0"
*HW_GONIOMETER_RADIUS-5 "300.0"
*HW_GONIOMETER_RADIUS-6 "113.0"
*HW_GONIOMETER_RADIUS-7 "331.0"
*HW_I_OPT_ID-0 "CBO0021"
*HW_I_OPT_ID-1 "ICR0023"
*HW_I_OPT_ID-2 "ISL0021"
*HW_I_OPT_ID-3 "ISO0021"
*HW_I_OPT_ID-4 "IAD0021"
*HW_I_OPT_ID-5 "IPR0001"
*HW_I_OPT_NAME-0 "CBOユニット|CBO unit"
*HW_I_OPT_NAME-1 "標準入射光学ユニット|Standard incident optical unit"
*HW_I_OPT_NAME-2 "標準入射スリットボックス|Standard incident slit box"
*HW_I_OPT_NAME-3 "入射平行スリット|Incident parallel slit"
*HW_I_OPT_NAME-4 "長手制限スリット|Length limiting slit"
*HW_I_OPT_NAME-5 "None|None"
*HW_R_ATTENUATER_AUTOMODE "0"
*HW_R_OPT_ID-0 "RSS0021"
*HW_R_OPT_ID-1 "RCR0023"
*HW_R_OPT_ID-2 "RSO0021"
*HW_R_OPT_ID-3 "RRS0021"
*HW_R_OPT_ID-4 "ATN0021"
*HW_R_OPT_ID-5 "RFL0021"
*HW_R_OPT_ID-6 "RAD0021"
*HW_R_OPT_NAME-0 "標準受光スリットボックス1|Standard receiving slit box # 1"
*HW_R_OPT_NAME-1 "標準受光光学ユニット1|Standard receiving unit # 1"
*HW_R_OPT_NAME-2 "標準受光光学ユニット2|Standard receiving optical unit # 2"
*HW_R_OPT_NAME-3 "標準受光スリットボックス2|Standard receiving slit box # 2"
*HW_R_OPT_NAME-4 "標準アッテネータ|Standard Attenuator"
*HW_R_OPT_NAME-5 "Cu Kβ|Cu K-beta"
*HW_R_OPT_NAME-6 "調整用受光スリット|Alignment receiving slit"
*HW_SAMPLE_HOLDER_ID "SMP0023"
*HW_SAMPLE_HOLDER_NAME "標準Zステージ|Standard Z stage"
*HW_XG_CURRENT_MAX "50"
*HW_XG_CURRENT_MIN "2"
*HW_XG_CURRENT_RESOLUTION "1"
*HW_XG_CURRENT_UNIT "mA"
*HW_XG_FOCUS "1mm x 10mm"
*HW_XG_FOCUS_TYPE "Normal"
*HW_XG_ID ""
*HW_XG_NAME "3kW 封入管(ID:1200)|3kW Sealed tube(ID:1200)"
*HW_XG_TARGET_ATOMIC_NUMBER "29.0000000000"
*HW_XG_TARGET_NAME "Cu"
*HW_XG_TYPE "Hermetic"
*HW_XG_VOLTAGE_MAX "60"
*HW_XG_VOLTAGE_MIN "20"
*HW_XG_VOLTAGE_RESOLUTION "1"
*HW_XG_VOLTAGE_UNIT "kV"
*HW_XG_WATT_MAX "1.500"
*HW_XG_WATT_UNIT "kW"
*HW_XG_WAVE_LENGTH_ALPHA1 "1.540593"
*HW_XG_WAVE_LENGTH_ALPHA2 "1.544414"
*HW_XG_WAVE_LENGTH_BETA "1.392250"
*MEAS_COND_AXIS_NAME-0 "2θ/θ"
*MEAS_COND_AXIS_NAME-1 "2θ"
*MEAS_COND_AXIS_NAME-2 "ω"
*MEAS_COND_AXIS_NAME-3 "Z"
*MEAS_COND_AXIS_NAME-4 "2θ/ω"
*MEAS_COND_AXIS_NAME-5 "θs"
*MEAS_COND_AXIS_NAME-6 "θd"
*MEAS_COND_AXIS_NAME-7 "Ts"
*MEAS_COND_AXIS_NAME-8 "CBO選択スリット"
*MEAS_COND_AXIS_NAME-9 "M"
*MEAS_COND_AXIS_NAME-10 "入射平行スリット"
*MEAS_COND_AXIS_NAME-11 "入射スリット"
*MEAS_COND_AXIS_NAME-12 ""
*MEAS_COND_AXIS_NAME-13 "Zs"
*MEAS_COND_AXIS_NAME-14 "入射光学素子"
*MEAS_COND_AXIS_NAME-15 "長手制限スリット"
*MEAS_COND_AXIS_NAME-16 "センタースリット"
*MEAS_COND_AXIS_NAME-17 "フィルター"
*MEAS_COND_AXIS_NAME-18 "受光スリット1"
*MEAS_COND_AXIS_NAME-19 "受光スリット2"
*MEAS_COND_AXIS_NAME-20 "受光光学素子"
*MEAS_COND_AXIS_NAME-21 "受光平行スリット"
*MEAS_COND_AXIS_NAME-22 "調整用受光スリット"
*MEAS_COND_AXIS_NAME-23 ""
*MEAS_COND_AXIS_NAME-24 ""
*MEAS_COND_AXIS_NAME-25 "Zd"
*MEAS_COND_AXIS_NAME-26 "アッテネータ"
*MEAS_COND_AXIS_NAME-27 "検出器モノクロメータ"
*MEAS_COND_AXIS_NAME-28 "モノクロメータスリット"
*MEAS_COND_AXIS_NAME-29 "プライマリビーム"
*MEAS_COND_AXIS_NAME-30 "PHA"
*MEAS_COND_AXIS_NAME_INTERNAL-0 "TwoThetaTheta"
*MEAS_COND_AXIS_NAME_INTERNAL-1 "TwoTheta"
*MEAS_COND_AXIS_NAME_INTERNAL-2 "Omega"
*MEAS_COND_AXIS_NAME_INTERNAL-3 "Z"
*MEAS_COND_AXIS_NAME_INTERNAL-4 "TwoThetaOmega"
*MEAS_COND_AXIS_NAME_INTERNAL-5 "ThetaS"
*MEAS_COND_AXIS_NAME_INTERNAL-6 "ThetaD"
*MEAS_COND_AXIS_NAME_INTERNAL-7 "Ts"
*MEAS_COND_AXIS_NAME_INTERNAL-8 "CBO"
*MEAS_COND_AXIS_NAME_INTERNAL-9 "CBO-M"
*MEAS_COND_AXIS_NAME_INTERNAL-10 "IncidentSollerSlit"
*MEAS_COND_AXIS_NAME_INTERNAL-11 "IncidentSlitBox"
*MEAS_COND_AXIS_NAME_INTERNAL-12 "IncidentSlitBox-_Axis"
*MEAS_COND_AXIS_NAME_INTERNAL-13 "Zs"
*MEAS_COND_AXIS_NAME_INTERNAL-14 "IncidentMonochromator"
*MEAS_COND_AXIS_NAME_INTERNAL-15 "IncidentAxdSlit"
*MEAS_COND_AXIS_NAME_INTERNAL-16 "CenterSlit"
*MEAS_COND_AXIS_NAME_INTERNAL-17 "Filter"
*MEAS_COND_AXIS_NAME_INTERNAL-18 "ReceivingSlitBox1"
*MEAS_COND_AXIS_NAME_INTERNAL-19 "ReceivingSlitBox2"
*MEAS_COND_AXIS_NAME_INTERNAL-20 "ReceivingOptics"
*MEAS_COND_AXIS_NAME_INTERNAL-21 "ReceivingSollerSlit"
*MEAS_COND_AXIS_NAME_INTERNAL-22 "ReceivingAxdSlit"
*MEAS_COND_AXIS_NAME_INTERNAL-23 "ReceivingSlitBox1-_Axis"
*MEAS_COND_AXIS_NAME_INTERNAL-24 "ReceivingSlitBox2-_Axis"
*MEAS_COND_AXIS_NAME_INTERNAL-25 "ReceivingSlitBox2-Zd"
*MEAS_COND_AXIS_NAME_INTERNAL-26 "Attenuator"
*MEAS_COND_AXIS_NAME_INTERNAL-27 "CounterMonochromator"
*MEAS_COND_AXIS_NAME_INTERNAL-28 "CounterSlit"
*MEAS_COND_AXIS_NAME_INTERNAL-29 "IncidentPrimary"
*MEAS_COND_AXIS_NAME_INTERNAL-30 "PHA"
*MEAS_COND_AXIS_NAME_MAGICNO-0 "83951616.0000000000"
*MEAS_COND_AXIS_NAME_MAGICNO-1 "268632064.0000000000"
*MEAS_COND_AXIS_NAME_MAGICNO-2 "268500992.0000000000"
*MEAS_COND_AXIS_NAME_MAGICNO-3 "285278208.0000000000"
*MEAS_COND_AXIS_NAME_MAGICNO-4 "83951616.0000000000"
*MEAS_COND_AXIS_NAME_MAGICNO-5 "131072.0000000000"
*MEAS_COND_AXIS_NAME_MAGICNO-6 "131072.0000000000"
*MEAS_COND_AXIS_NAME_MAGICNO-7 "318898176.0000000000"
*MEAS_COND_AXIS_NAME_MAGICNO-8 "20971521.0000000000"
*MEAS_COND_AXIS_NAME_MAGICNO-9 "285343744.0000000000"
*MEAS_COND_AXIS_NAME_MAGICNO-10 "20971521.0000000000"
*MEAS_COND_AXIS_NAME_MAGICNO-11 "22020097.0000000000"
*MEAS_COND_AXIS_NAME_MAGICNO-12 "25165824.0000000000"
*MEAS_COND_AXIS_NAME_MAGICNO-13 "318898176.0000000000"
*MEAS_COND_AXIS_NAME_MAGICNO-14 "1.0000000000"
*MEAS_COND_AXIS_NAME_MAGICNO-15 "20971521.0000000000"
*MEAS_COND_AXIS_NAME_MAGICNO-16 "20971521.0000000000"
*MEAS_COND_AXIS_NAME_MAGICNO-17 "20971521.0000000000"
*MEAS_COND_AXIS_NAME_MAGICNO-18 "23068673.0000000000"
*MEAS_COND_AXIS_NAME_MAGICNO-19 "23068673.0000000000"
*MEAS_COND_AXIS_NAME_MAGICNO-20 "20971521.0000000000"
*MEAS_COND_AXIS_NAME_MAGICNO-21 "20971521.0000000000"
*MEAS_COND_AXIS_NAME_MAGICNO-22 "20971521.0000000000"
*MEAS_COND_AXIS_NAME_MAGICNO-23 "25165824.0000000000"
*MEAS_COND_AXIS_NAME_MAGICNO-24 "25165824.0000000000"
*MEAS_COND_AXIS_NAME_MAGICNO-25 "285343744.0000000000"
*MEAS_COND_AXIS_NAME_MAGICNO-26 "17301505.0000000000"
*MEAS_COND_AXIS_NAME_MAGICNO-27 "20971521.0000000000"
*MEAS_COND_AXIS_NAME_MAGICNO-28 "20971521.0000000000"
*MEAS_COND_AXIS_NAME_MAGICNO-29 "20971521.0000000000"
*MEAS_COND_AXIS_NAME_MAGICNO-30 "0.0000000000"
*MEAS_COND_AXIS_OFFSET-0 "-"
*MEAS_COND_AXIS_OFFSET-1 "-0.0310000000"
*MEAS_COND_AXIS_OFFSET-2 "0.3978000000"
*MEAS_COND_AXIS_OFFSET-3 "-"
*MEAS_COND_AXIS_OFFSET-4 "-"
*MEAS_COND_AXIS_OFFSET-5 "0.3978000000"
*MEAS_COND_AXIS_OFFSET-6 "-0.4288000000"
*MEAS_COND_AXIS_OFFSET-7 "-"
*MEAS_COND_AXIS_OFFSET-8 "-"
*MEAS_COND_AXIS_OFFSET-9 "-"
*MEAS_COND_AXIS_OFFSET-10 "-"
*MEAS_COND_AXIS_OFFSET-11 "-"
*MEAS_COND_AXIS_OFFSET-12 "-"
*MEAS_COND_AXIS_OFFSET-13 "-"
*MEAS_COND_AXIS_OFFSET-14 "-"
*MEAS_COND_AXIS_OFFSET-15 "-"
*MEAS_COND_AXIS_OFFSET-16 "-"
*MEAS_COND_AXIS_OFFSET-17 "-"
*MEAS_COND_AXIS_OFFSET-18 "-"
*MEAS_COND_AXIS_OFFSET-19 "-"
*MEAS_COND_AXIS_OFFSET-20 "-"
*MEAS_COND_AXIS_OFFSET-21 "-"
*MEAS_COND_AXIS_OFFSET-22 "-"
*MEAS_COND_AXIS_OFFSET-23 "-"
*MEAS_COND_AXIS_OFFSET-24 "-"
*MEAS_COND_AXIS_OFFSET-25 "-"
*MEAS_COND_AXIS_OFFSET-26 "-"
*MEAS_COND_AXIS_OFFSET-27 "-"
*MEAS_COND_AXIS_OFFSET-28 "-"
*MEAS_COND_AXIS_OFFSET-29 "-"
*MEAS_COND_AXIS_OFFSET-30 "-"
*MEAS_COND_AXIS_POSITION-0 "0.0000000000"
*MEAS_COND_AXIS_POSITION-1 "0.0000000000"
*MEAS_COND_AXIS_POSITION-2 "0.0000000000"
*MEAS_COND_AXIS_POSITION-3 "-2.9770000000"
*MEAS_COND_AXIS_POSITION-4 "0.0000000000"
*MEAS_COND_AXIS_POSITION-5 "0.0000000000"
*MEAS_COND_AXIS_POSITION-6 "0.0000000000"
*MEAS_COND_AXIS_POSITION-7 "-0.7498700000"
*MEAS_COND_AXIS_POSITION-8 "BB"
*MEAS_COND_AXIS_POSITION-9 "0.0000000000"
*MEAS_COND_AXIS_POSITION-10 "Soller_slit_5.0deg"
*MEAS_COND_AXIS_POSITION-11 "2/3deg"
*MEAS_COND_AXIS_POSITION-12 "2.2088000000"
*MEAS_COND_AXIS_POSITION-13 "-0.6412500000"
*MEAS_COND_AXIS_POSITION-14 "0.0000000000"
*MEAS_COND_AXIS_POSITION-15 "10.0mm"
*MEAS_COND_AXIS_POSITION-16 "None"
*MEAS_COND_AXIS_POSITION-17 "Cu_K-beta"
*MEAS_COND_AXIS_POSITION-18 "13.000mm"
*MEAS_COND_AXIS_POSITION-19 "13.000mm"
*MEAS_COND_AXIS_POSITION-20 "No_unit"
*MEAS_COND_AXIS_POSITION-21 "Soller_slit_5.0deg"
*MEAS_COND_AXIS_POSITION-22 "None"
*MEAS_COND_AXIS_POSITION-23 "13.0000000000"
*MEAS_COND_AXIS_POSITION-24 "13.0000000000"
*MEAS_COND_AXIS_POSITION-25 "0.0281300000"
*MEAS_COND_AXIS_POSITION-26 "Open"
*MEAS_COND_AXIS_POSITION-27 "None"
*MEAS_COND_AXIS_POSITION-28 "None"
*MEAS_COND_AXIS_POSITION-29 "None"
*MEAS_COND_AXIS_POSITION-30 "38.0000000000"
*MEAS_COND_AXIS_UNIT-0 "deg"
*MEAS_COND_AXIS_UNIT-1 "deg"
*MEAS_COND_AXIS_UNIT-2 "deg"
*MEAS_COND_AXIS_UNIT-3 "mm"
*MEAS_COND_AXIS_UNIT-4 "deg"
*MEAS_COND_AXIS_UNIT-5 "deg"
*MEAS_COND_AXIS_UNIT-6 "deg"
*MEAS_COND_AXIS_UNIT-7 "mm"
*MEAS_COND_AXIS_UNIT-8 ""
*MEAS_COND_AXIS_UNIT-9 "pulse"
*MEAS_COND_AXIS_UNIT-10 ""
*MEAS_COND_AXIS_UNIT-11 ""
*MEAS_COND_AXIS_UNIT-12 "mm"
*MEAS_COND_AXIS_UNIT-13 "mm"
*MEAS_COND_AXIS_UNIT-14 ""
*MEAS_COND_AXIS_UNIT-15 ""
*MEAS_COND_AXIS_UNIT-16 ""
*MEAS_COND_AXIS_UNIT-17 ""
*MEAS_COND_AXIS_UNIT-18 ""
*MEAS_COND_AXIS_UNIT-19 ""
*MEAS_COND_AXIS_UNIT-20 ""
*MEAS_COND_AXIS_UNIT-21 ""
*MEAS_COND_AXIS_UNIT-22 ""
*MEAS_COND_AXIS_UNIT-23 "mm"
*MEAS_COND_AXIS_UNIT-24 "mm"
*MEAS_COND_AXIS_UNIT-25 "mm"
*MEAS_COND_AXIS_UNIT-26 ""
*MEAS_COND_AXIS_UNIT-27 ""
*MEAS_COND_AXIS_UNIT-28 ""
*MEAS_COND_AXIS_UNIT-29 ""
*MEAS_COND_AXIS_UNIT-30 "div"
*MEAS_COND_COUNTER_CNTLOSS_CORR "0.0000000000"
*MEAS_COND_COUNTER_PHABASE "38.0000000000"
*MEAS_COND_COUNTER_PHAWINDOW "16.0000000000"
*MEAS_COND_COUNTER_PHA_UNIT "div"
*MEAS_COND_COUNTER_TAUDIFF "30.0000000000"
*MEAS_COND_COUNTER_TAUINT "0.0000000000"
*MEAS_COND_IRRADIATION_MODE "OFF"
*MEAS_COND_IRRADIATION_WIDTH ""
*MEAS_COND_OPT_ATTR "集中法"
*MEAS_COND_OPT_NAME "@集中法"
*MEAS_COND_UNSYMMETRIC_MODE "OFF"
*MEAS_COND_XG_CURRENT "30.0000000000"
*MEAS_COND_XG_VOLTAGE "40.0000000000"
*MEAS_COND_XG_WAVE_TYPE "Ka"
*MEAS_DATA_COUNT "5001.0000000000"
*MEAS_SCAN_AXIS_X "2θ/θ"
*MEAS_SCAN_AXIS_X_INTERNAL "TwoThetaTheta"
*MEAS_SCAN_END_TIME "05/18/23 20:32:14"
*MEAS_SCAN_MODE "CONTINUOUS"
*MEAS_SCAN_MONITOR "0"
*MEAS_SCAN_RESOLUTION_X "0.0002"
*MEAS_SCAN_SPEED "2.5"
*MEAS_SCAN_SPEED_UNIT "deg/min"
*MEAS_SCAN_START "20.0000000000"
*MEAS_SCAN_START_TIME "05/18/23 20:10:50"
*MEAS_SCAN_STEP "0.0100000000"
*MEAS_SCAN_STOP "70.0000000000"
*MEAS_SCAN_UNIT_X "deg"
*MEAS_SCAN_UNIT_Y "counts"
*RAS_HEADER_END
*RAS_INT_START
20.0000 797.0000 1.0000
20.0100 800.0000 1.0000
20.0200 864.0000 1.0000
20.0300 897.0000 1.0000
20.0400 845.0000 1.0000
20.0500 825.0000 1.0000
20.0600 821.0000 1.0000
20.0700 844.0000 1.0000
20.0800 842.0000 1.0000
20.0900 836.0000 1.0000
20.1000 865.0000 1.0000
20.1100 811.0000 1.0000
20.1200 862.0000 1.0000
20.1300 866.0000 1.0000
20.1400 854.0000 1.0000
20.1500 817.0000 1.0000
20.1600 832.0000 1.0000
20.1700 818.0000 1.0000
20.1800 856.0000 1.0000
20.1900 853.0000 1.0000
20.2000 820.0000 1.0000
20.2100 832.0000 1.0000
20.2200 894.0000 1.0000
20.2300 880.0000 1.0000
20.2400 817.0000 1.0000
20.2500 812.0000 1.0000
20.2600 830.0000 1.0000
20.2700 856.0000 1.0000
20.2800 838.0000 1.0000
20.2900 851.0000 1.0000
20.3000 911.0000 1.0000
20.3100 856.0000 1.0000
20.3200 819.0000 1.0000
20.3300 866.0000 1.0000
20.3400 866.0000 1.0000
20.3500 837.0000 1.0000
20.3600 837.0000 1.0000
20.3700 843.0000 1.0000
20.3800 799.0000 1.0000
20.3900 874.0000 1.0000
20.4000 840.0000 1.0000
20.4100 794.0000 1.0000
20.4200 827.0000 1.0000
20.4300 888.0000 1.0000
20.4400 857.0000 1.0000
20.4500 867.0000 1.0000
20.4600 801.0000 1.0000
20.4700 821.0000 1.0000
20.4800 868.0000 1.0000
20.4900 827.0000 1.0000
20.5000 866.0000 1.0000
20.5100 800.0000 1.0000
20.5200 851.0000 1.0000
20.5300 861.0000 1.0000
20.5400 817.0000 1.0000
20.5500 796.0000 1.0000
20.5600 876.0000 1.0000
20.5700 830.0000 1.0000
20.5800 848.0000 1.0000
20.5900 811.0000 1.0000
20.6000 805.0000 1.0000
20.6100 832.0000 1.0000
20.6200 887.0000 1.0000
20.6300 825.0000 1.0000
20.6400 827.0000 1.0000
20.6500 824.0000 1.0000
20.6600 820.0000 1.0000
20.6700 836.0000 1.0000
20.6800 838.0000 1.0000
20.6900 824.0000 1.0000
20.7000 819.0000 1.0000
20.7100 881.0000 1.0000
20.7200 842.0000 1.0000
20.7300 839.0000 1.0000
20.7400 865.0000 1.0000
20.7500 877.0000 1.0000
20.7600 792.0000 1.0000
20.7700 826.0000 1.0000
20.7800 833.0000 1.0000
20.7900 825.0000 1.0000
20.8000 829.0000 1.0000
20.8100 835.0000 1.0000
20.8200 828.0000 1.0000
20.8300 861.0000 1.0000
20.8400 854.0000 1.0000
20.8500 804.0000 1.0000
20.8600 825.0000 1.0000
20.8700 841.0000 1.0000
20.8800 808.0000 1.0000
20.8900 855.0000 1.0000
20.9000 847.0000 1.0000
20.9100 882.0000 1.0000
20.9200 820.0000 1.0000
20.9300 823.0000 1.0000
20.9400 848.0000 1.0000
20.9500 804.0000 1.0000
20.9600 853.0000 1.0000
20.9700 849.0000 1.0000
20.9800 862.0000 1.0000
20.9900 891.0000 1.0000
21.0000 857.0000 1.0000
21.0100 848.0000 1.0000
21.0200 839.0000 1.0000
21.0300 806.0000 1.0000
21.0400 847.0000 1.0000
21.0500 809.0000 1.0000
21.0600 830.0000 1.0000
21.0700 829.0000 1.0000
21.0800 839.0000 1.0000
21.0900 794.0000 1.0000
21.1000 837.0000 1.0000
21.1100 819.0000 1.0000
21.1200 832.0000 1.0000
21.1300 844.0000 1.0000
21.1400 830.0000 1.0000
21.1500 844.0000 1.0000
21.1600 798.0000 1.0000
21.1700 822.0000 1.0000
21.1800 795.0000 1.0000
21.1900 829.0000 1.0000
21.2000 787.0000 1.0000
21.2100 829.0000 1.0000
21.2200 800.0000 1.0000
21.2300 832.0000 1.0000
21.2400 828.0000 1.0000
21.2500 858.0000 1.0000
21.2600 810.0000 1.0000
21.2700 840.0000 1.0000
21.2800 835.0000 1.0000
21.2900 850.0000 1.0000
21.3000 850.0000 1.0000
21.3100 862.0000 1.0000
21.3200 837.0000 1.0000
21.3300 852.0000 1.0000
21.3400 888.0000 1.0000
21.3500 863.0000 1.0000
21.3600 821.0000 1.0000
21.3700 773.0000 1.0000
21.3800 808.0000 1.0000
21.3900 821.0000 1.0000
21.4000 807.0000 1.0000
21.4100 830.0000 1.0000
21.4200 822.0000 1.0000
21.4300 868.0000 1.0000
21.4400 868.0000 1.0000
21.4500 815.0000 1.0000
21.4600 861.0000 1.0000
21.4700 858.0000 1.0000
21.4800 853.0000 1.0000
21.4900 813.0000 1.0000
21.5000 861.0000 1.0000
21.5100 797.0000 1.0000
21.5200 803.0000 1.0000
21.5300 821.0000 1.0000
21.5400 841.0000 1.0000
21.5500 880.0000 1.0000
21.5600 802.0000 1.0000
21.5700 854.0000 1.0000
21.5800 856.0000 1.0000
21.5900 843.0000 1.0000
21.6000 819.0000 1.0000
21.6100 863.0000 1.0000
21.6200 823.0000 1.0000
21.6300 847.0000 1.0000
21.6400 824.0000 1.0000
21.6500 880.0000 1.0000
21.6600 918.0000 1.0000
21.6700 833.0000 1.0000
21.6800 837.0000 1.0000
21.6900 827.0000 1.0000
21.7000 857.0000 1.0000
21.7100 824.0000 1.0000
21.7200 800.0000 1.0000
21.7300 851.0000 1.0000
21.7400 805.0000 1.0000
21.7500 858.0000 1.0000
21.7600 839.0000 1.0000
21.7700 869.0000 1.0000
21.7800 835.0000 1.0000
21.7900 858.0000 1.0000
21.8000 802.0000 1.0000
21.8100 853.0000 1.0000
21.8200 822.0000 1.0000
21.8300 848.0000 1.0000
21.8400 822.0000 1.0000
21.8500 859.0000 1.0000
21.8600 809.0000 1.0000
21.8700 849.0000 1.0000
21.8800 830.0000 1.0000
21.8900 842.0000 1.0000
21.9000 819.0000 1.0000
21.9100 855.0000 1.0000
21.9200 810.0000 1.0000
21.9300 838.0000 1.0000
21.9400 814.0000 1.0000
21.9500 874.0000 1.0000
21.9600 847.0000 1.0000
21.9700 847.0000 1.0000
21.9800 831.0000 1.0000
21.9900 882.0000 1.0000
22.0000 805.0000 1.0000
22.0100 802.0000 1.0000
22.0200 802.0000 1.0000
22.0300 849.0000 1.0000
22.0400 845.0000 1.0000
22.0500 864.0000 1.0000
22.0600 815.0000 1.0000
22.0700 831.0000 1.0000
22.0800 822.0000 1.0000
22.0900 835.0000 1.0000
22.1000 837.0000 1.0000
22.1100 839.0000 1.0000
22.1200 819.0000 1.0000
22.1300 786.0000 1.0000
22.1400 808.0000 1.0000
22.1500 850.0000 1.0000
22.1600 849.0000 1.0000
22.1700 789.0000 1.0000
22.1800 783.0000 1.0000
22.1900 834.0000 1.0000
22.2000 868.0000 1.0000
22.2100 832.0000 1.0000
22.2200 880.0000 1.0000
22.2300 853.0000 1.0000
22.2400 778.0000 1.0000
22.2500 818.0000 1.0000
22.2600 798.0000 1.0000
22.2700 859.0000 1.0000
22.2800 779.0000 1.0000
22.2900 812.0000 1.0000
22.3000 823.0000 1.0000
22.3100 817.0000 1.0000
22.3200 802.0000 1.0000
22.3300 817.0000 1.0000
22.3400 818.0000 1.0000
22.3500 784.0000 1.0000
22.3600 782.0000 1.0000
22.3700 821.0000 1.0000
22.3800 834.0000 1.0000
22.3900 799.0000 1.0000
22.4000 809.0000 1.0000
22.4100 787.0000 1.0000
22.4200 824.0000 1.0000
22.4300 780.0000 1.0000
22.4400 830.0000 1.0000
22.4500 831.0000 1.0000
22.4600 783.0000 1.0000
22.4700 774.0000 1.0000
22.4800 798.0000 1.0000
22.4900 777.0000 1.0000
22.5000 803.0000 1.0000
22.5100 822.0000 1.0000
22.5200 777.0000 1.0000
22.5300 835.0000 1.0000
22.5400 825.0000 1.0000
22.5500 837.0000 1.0000
22.5600 837.0000 1.0000
22.5700 828.0000 1.0000
22.5800 805.0000 1.0000
22.5900 805.0000 1.0000
22.6000 831.0000 1.0000
22.6100 795.0000 1.0000
22.6200 853.0000 1.0000
22.6300 807.0000 1.0000
22.6400 841.0000 1.0000
22.6500 825.0000 1.0000
22.6600 845.0000 1.0000
22.6700 781.0000 1.0000
22.6800 775.0000 1.0000
22.6900 812.0000 1.0000
22.7000 797.0000 1.0000
22.7100 810.0000 1.0000
22.7200 812.0000 1.0000
22.7300 800.0000 1.0000
22.7400 850.0000 1.0000
22.7500 798.0000 1.0000
22.7600 845.0000 1.0000
22.7700 839.0000 1.0000
22.7800 841.0000 1.0000
22.7900 790.0000 1.0000
22.8000 802.0000 1.0000
22.8100 825.0000 1.0000
22.8200 840.0000 1.0000
22.8300 847.0000 1.0000
22.8400 817.0000 1.0000
22.8500 855.0000 1.0000
22.8600 808.0000 1.0000
22.8700 856.0000 1.0000
22.8800 822.0000 1.0000
22.8900 858.0000 1.0000
22.9000 797.0000 1.0000
22.9100 847.0000 1.0000
22.9200 859.0000 1.0000
22.9300 826.0000 1.0000
22.9400 779.0000 1.0000
22.9500 785.0000 1.0000
22.9600 836.0000 1.0000
22.9700 835.0000 1.0000
22.9800 788.0000 1.0000
22.9900 812.0000 1.0000
23.0000 843.0000 1.0000
23.0100 834.0000 1.0000
23.0200 821.0000 1.0000
23.0300 805.0000 1.0000
23.0400 825.0000 1.0000
23.0500 840.0000 1.0000
23.0600 807.0000 1.0000
23.0700 810.0000 1.0000
23.0800 793.0000 1.0000
23.0900 796.0000 1.0000
23.1000 835.0000 1.0000
23.1100 839.0000 1.0000
23.1200 806.0000 1.0000
23.1300 786.0000 1.0000
23.1400 802.0000 1.0000
23.1500 816.0000 1.0000
23.1600 788.0000 1.0000
23.1700 822.0000 1.0000
23.1800 797.0000 1.0000
23.1900 792.0000 1.0000
23.2000 820.0000 1.0000
23.2100 797.0000 1.0000
23.2200 838.0000 1.0000
23.2300 856.0000 1.0000
23.2400 792.0000 1.0000
23.2500 823.0000 1.0000
23.2600 805.0000 1.0000
23.2700 792.0000 1.0000
23.2800 806.0000 1.0000
23.2900 868.0000 1.0000
23.3000 832.0000 1.0000
23.3100 771.0000 1.0000
23.3200 791.0000 1.0000
23.3300 816.0000 1.0000
23.3400 792.0000 1.0000
23.3500 787.0000 1.0000
23.3600 781.0000 1.0000
23.3700 755.0000 1.0000
23.3800 766.0000 1.0000
23.3900 767.0000 1.0000
23.4000 812.0000 1.0000
23.4100 799.0000 1.0000
23.4200 788.0000 1.0000
23.4300 806.0000 1.0000
23.4400 801.0000 1.0000
23.4500 806.0000 1.0000
23.4600 803.0000 1.0000
23.4700 806.0000 1.0000
23.4800 826.0000 1.0000
23.4900 835.0000 1.0000
23.5000 835.0000 1.0000
23.5100 781.0000 1.0000
23.5200 793.0000 1.0000
23.5300 784.0000 1.0000
23.5400 801.0000 1.0000
23.5500 794.0000 1.0000
23.5600 767.0000 1.0000
23.5700 791.0000 1.0000
23.5800 844.0000 1.0000
23.5900 803.0000 1.0000
23.6000 803.0000 1.0000
23.6100 790.0000 1.0000
23.6200 812.0000 1.0000
23.6300 764.0000 1.0000
23.6400 763.0000 1.0000
23.6500 799.0000 1.0000
23.6600 815.0000 1.0000
23.6700 829.0000 1.0000
23.6800 822.0000 1.0000
23.6900 785.0000 1.0000
23.7000 774.0000 1.0000
23.7100 764.0000 1.0000
23.7200 837.0000 1.0000
23.7300 855.0000 1.0000
23.7400 791.0000 1.0000
23.7500 814.0000 1.0000
23.7600 821.0000 1.0000
23.7700 794.0000 1.0000
23.7800 778.0000 1.0000
23.7900 824.0000 1.0000
23.8000 817.0000 1.0000
23.8100 867.0000 1.0000
23.8200 790.0000 1.0000
23.8300 778.0000 1.0000
23.8400 811.0000 1.0000
23.8500 858.0000 1.0000
23.8600 844.0000 1.0000
23.8700 886.0000 1.0000
23.8800 833.0000 1.0000
23.8900 799.0000 1.0000
23.9000 863.0000 1.0000
23.9100 862.0000 1.0000
23.9200 802.0000 1.0000
23.9300 836.0000 1.0000
23.9400 833.0000 1.0000
23.9500 846.0000 1.0000
23.9600 810.0000 1.0000
23.9700 831.0000 1.0000
23.9800 822.0000 1.0000
23.9900 798.0000 1.0000
24.0000 843.0000 1.0000
24.0100 809.0000 1.0000
24.0200 832.0000 1.0000
24.0300 875.0000 1.0000
24.0400 857.0000 1.0000
24.0500 856.0000 1.0000
24.0600 886.0000 1.0000
24.0700 840.0000 1.0000
24.0800 813.0000 1.0000
24.0900 841.0000 1.0000
24.1000 818.0000 1.0000
24.1100 868.0000 1.0000
24.1200 783.0000 1.0000
24.1300 844.0000 1.0000
24.1400 800.0000 1.0000
24.1500 763.0000 1.0000
24.1600 829.0000 1.0000
24.1700 837.0000 1.0000
24.1800 799.0000 1.0000
24.1900 821.0000 1.0000
24.2000 830.0000 1.0000
24.2100 819.0000 1.0000
24.2200 789.0000 1.0000
24.2300 775.0000 1.0000
24.2400 847.0000 1.0000
24.2500 834.0000 1.0000
24.2600 778.0000 1.0000
24.2700 836.0000 1.0000
24.2800 813.0000 1.0000
24.2900 823.0000 1.0000
24.3000 810.0000 1.0000
24.3100 864.0000 1.0000
24.3200 874.0000 1.0000
24.3300 825.0000 1.0000
24.3400 808.0000 1.0000
24.3500 813.0000 1.0000
24.3600 762.0000 1.0000
24.3700 820.0000 1.0000
24.3800 782.0000 1.0000
24.3900 824.0000 1.0000
24.4000 823.0000 1.0000
24.4100 860.0000 1.0000
24.4200 822.0000 1.0000
24.4300 809.0000 1.0000
24.4400 780.0000 1.0000
24.4500 841.0000 1.0000
24.4600 807.0000 1.0000
24.4700 734.0000 1.0000
24.4800 792.0000 1.0000
24.4900 825.0000 1.0000
24.5000 774.0000 1.0000
24.5100 820.0000 1.0000
24.5200 809.0000 1.0000
24.5300 784.0000 1.0000
24.5400 790.0000 1.0000
24.5500 794.0000 1.0000
24.5600 792.0000 1.0000
24.5700 752.0000 1.0000
24.5800 744.0000 1.0000
24.5900 799.0000 1.0000
24.6000 820.0000 1.0000
24.6100 755.0000 1.0000
24.6200 798.0000 1.0000
24.6300 795.0000 1.0000
24.6400 753.0000 1.0000
24.6500 747.0000 1.0000
24.6600 830.0000 1.0000
24.6700 805.0000 1.0000
24.6800 791.0000 1.0000
24.6900 737.0000 1.0000
24.7000 763.0000 1.0000
24.7100 787.0000 1.0000
24.7200 840.0000 1.0000
24.7300 765.0000 1.0000
24.7400 793.0000 1.0000
24.7500 812.0000 1.0000
24.7600 799.0000 1.0000
24.7700 794.0000 1.0000
24.7800 798.0000 1.0000
24.7900 752.0000 1.0000
24.8000 763.0000 1.0000
24.8100 802.0000 1.0000
24.8200 794.0000 1.0000
24.8300 815.0000 1.0000
24.8400 790.0000 1.0000
24.8500 774.0000 1.0000
24.8600 785.0000 1.0000
24.8700 835.0000 1.0000
24.8800 824.0000 1.0000
24.8900 799.0000 1.0000
24.9000 809.0000 1.0000
24.9100 797.0000 1.0000
24.9200 744.0000 1.0000
24.9300 772.0000 1.0000
24.9400 788.0000 1.0000
24.9500 792.0000 1.0000
24.9600 811.0000 1.0000
24.9700 828.0000 1.0000
24.9800 761.0000 1.0000
24.9900 706.0000 1.0000
25.0000 829.0000 1.0000
25.0100 785.0000 1.0000
25.0200 779.0000 1.0000
25.0300 796.0000 1.0000
25.0400 807.0000 1.0000
25.0500 838.0000 1.0000
25.0600 770.0000 1.0000
25.0700 794.0000 1.0000
25.0800 788.0000 1.0000
25.0900 743.0000 1.0000
25.1000 731.0000 1.0000
25.1100 759.0000 1.0000
25.1200 778.0000 1.0000
25.1300 770.0000 1.0000
25.1400 720.0000 1.0000
25.1500 747.0000 1.0000
25.1600 773.0000 1.0000
25.1700 735.0000 1.0000
25.1800 809.0000 1.0000
25.1900 768.0000 1.0000
25.2000 767.0000 1.0000
25.2100 806.0000 1.0000
25.2200 751.0000 1.0000
25.2300 753.0000 1.0000
25.2400 780.0000 1.0000
25.2500 751.0000 1.0000
25.2600 793.0000 1.0000
25.2700 813.0000 1.0000
25.2800 757.0000 1.0000
25.2900 748.0000 1.0000
25.3000 758.0000 1.0000
25.3100 772.0000 1.0000
25.3200 774.0000 1.0000
25.3300 817.0000 1.0000
25.3400 818.0000 1.0000
25.3500 796.0000 1.0000
25.3600 782.0000 1.0000
25.3700 768.0000 1.0000
25.3800 747.0000 1.0000
25.3900 759.0000 1.0000
25.4000 834.0000 1.0000
25.4100 793.0000 1.0000
25.4200 755.0000 1.0000
25.4300 808.0000 1.0000
25.4400 806.0000 1.0000
25.4500 751.0000 1.0000
25.4600 815.0000 1.0000
25.4700 765.0000 1.0000
25.4800 738.0000 1.0000
25.4900 788.0000 1.0000
25.5000 795.0000 1.0000
25.5100 761.0000 1.0000
25.5200 786.0000 1.0000
25.5300 795.0000 1.0000
25.5400 775.0000 1.0000
25.5500 798.0000 1.0000
25.5600 806.0000 1.0000
25.5700 767.0000 1.0000
25.5800 754.0000 1.0000
25.5900 809.0000 1.0000
25.6000 780.0000 1.0000
25.6100 767.0000 1.0000
25.6200 780.0000 1.0000
25.6300 806.0000 1.0000
25.6400 780.0000 1.0000
25.6500 816.0000 1.0000
25.6600 800.0000 1.0000
25.6700 787.0000 1.0000
25.6800 800.0000 1.0000
25.6900 761.0000 1.0000
25.7000 775.0000 1.0000
25.7100 838.0000 1.0000
25.7200 776.0000 1.0000
25.7300 768.0000 1.0000
25.7400 749.0000 1.0000
25.7500 754.0000 1.0000
25.7600 753.0000 1.0000
25.7700 781.0000 1.0000
25.7800 839.0000 1.0000
25.7900 834.0000 1.0000
25.8000 822.0000 1.0000
25.8100 783.0000 1.0000
25.8200 811.0000 1.0000
25.8300 806.0000 1.0000
25.8400 868.0000 1.0000
25.8500 783.0000 1.0000
25.8600 842.0000 1.0000
25.8700 826.0000 1.0000
25.8800 827.0000 1.0000
25.8900 815.0000 1.0000
25.9000 828.0000 1.0000
25.9100 809.0000 1.0000
25.9200 801.0000 1.0000
25.9300 833.0000 1.0000
25.9400 828.0000 1.0000
25.9500 851.0000 1.0000
25.9600 811.0000 1.0000
25.9700 810.0000 1.0000
25.9800 905.0000 1.0000
25.9900 873.0000 1.0000
26.0000 893.0000 1.0000
26.0100 878.0000 1.0000
26.0200 866.0000 1.0000
26.0300 912.0000 1.0000
26.0400 938.0000 1.0000
26.0500 909.0000 1.0000
26.0600 905.0000 1.0000
26.0700 912.0000 1.0000
26.0800 944.0000 1.0000
26.0900 953.0000 1.0000
26.1000 930.0000 1.0000
26.1100 957.0000 1.0000
26.1200 1007.0000 1.0000
26.1300 962.0000 1.0000
26.1400 979.0000 1.0000
26.1500 1014.0000 1.0000
26.1600 1035.0000 1.0000
26.1700 1068.0000 1.0000
26.1800 1078.0000 1.0000
26.1900 1096.0000 1.0000
26.2000 1115.0000 1.0000
26.2100 1140.0000 1.0000
26.2200 1171.0000 1.0000
26.2300 1270.0000 1.0000
26.2400 1266.0000 1.0000
26.2500 1344.0000 1.0000
26.2600 1382.0000 1.0000
26.2700 1417.0000 1.0000
26.2800 1471.0000 1.0000
26.2900 1519.0000 1.0000
26.3000 1594.0000 1.0000
26.3100 1649.0000 1.0000
26.3200 1772.0000 1.0000
26.3300 1790.0000 1.0000
26.3400 1915.0000 1.0000
26.3500 2049.0000 1.0000
26.3600 2189.0000 1.0000
26.3700 2298.0000 1.0000
26.3800 2432.0000 1.0000
26.3900 2540.0000 1.0000
26.4000 2658.0000 1.0000
26.4100 2771.0000 1.0000
26.4200 2826.0000 1.0000
26.4300 2698.0000 1.0000
26.4400 2897.0000 1.0000
26.4500 2904.0000 1.0000
26.4600 2829.0000 1.0000
26.4700 2774.0000 1.0000
26.4800 2623.0000 1.0000
26.4900 2577.0000 1.0000
26.5000 2523.0000 1.0000
26.5100 2355.0000 1.0000
26.5200 2210.0000 1.0000
26.5300 2098.0000 1.0000
26.5400 1972.0000 1.0000
26.5500 1889.0000 1.0000
26.5600 1775.0000 1.0000
26.5700 1716.0000 1.0000
26.5800 1642.0000 1.0000
26.5900 1558.0000 1.0000
26.6000 1447.0000 1.0000
26.6100 1382.0000 1.0000
26.6200 1356.0000 1.0000
26.6300 1262.0000 1.0000
26.6400 1234.0000 1.0000
26.6500 1190.0000 1.0000
26.6600 1131.0000 1.0000
26.6700 1091.0000 1.0000
26.6800 1096.0000 1.0000
26.6900 1052.0000 1.0000
26.7000 1057.0000 1.0000
26.7100 1005.0000 1.0000
26.7200 998.0000 1.0000
26.7300 956.0000 1.0000
26.7400 990.0000 1.0000
26.7500 912.0000 1.0000
26.7600 882.0000 1.0000
26.7700 924.0000 1.0000
26.7800 948.0000 1.0000
26.7900 910.0000 1.0000
26.8000 879.0000 1.0000
26.8100 878.0000 1.0000
26.8200 849.0000 1.0000
26.8300 843.0000 1.0000
26.8400 865.0000 1.0000
26.8500 862.0000 1.0000
26.8600 851.0000 1.0000
26.8700 825.0000 1.0000
26.8800 859.0000 1.0000
26.8900 854.0000 1.0000
26.9000 778.0000 1.0000
26.9100 811.0000 1.0000
26.9200 828.0000 1.0000
26.9300 816.0000 1.0000
26.9400 774.0000 1.0000
26.9500 834.0000 1.0000
26.9600 798.0000 1.0000
26.9700 783.0000 1.0000
26.9800 790.0000 1.0000
26.9900 846.0000 1.0000
27.0000 786.0000 1.0000
27.0100 748.0000 1.0000
27.0200 787.0000 1.0000
27.0300 796.0000 1.0000
27.0400 759.0000 1.0000
27.0500 781.0000 1.0000
27.0600 768.0000 1.0000
27.0700 759.0000 1.0000
27.0800 723.0000 1.0000
27.0900 719.0000 1.0000
27.1000 745.0000 1.0000
27.1100 708.0000 1.0000
27.1200 754.0000 1.0000
27.1300 773.0000 1.0000
27.1400 724.0000 1.0000
27.1500 735.0000 1.0000
27.1600 757.0000 1.0000
27.1700 729.0000 1.0000
27.1800 720.0000 1.0000
27.1900 753.0000 1.0000
27.2000 748.0000 1.0000
27.2100 754.0000 1.0000
27.2200 774.0000 1.0000
27.2300 727.0000 1.0000
27.2400 759.0000 1.0000
27.2500 741.0000 1.0000
27.2600 710.0000 1.0000
27.2700 701.0000 1.0000
27.2800 724.0000 1.0000
27.2900 727.0000 1.0000
27.3000 696.0000 1.0000
27.3100 733.0000 1.0000
27.3200 743.0000 1.0000
27.3300 726.0000 1.0000
27.3400 731.0000 1.0000
27.3500 720.0000 1.0000
27.3600 692.0000 1.0000
27.3700 716.0000 1.0000
27.3800 675.0000 1.0000
27.3900 692.0000 1.0000
27.4000 770.0000 1.0000
27.4100 719.0000 1.0000
27.4200 719.0000 1.0000
27.4300 756.0000 1.0000
27.4400 760.0000 1.0000
27.4500 722.0000 1.0000
27.4600 778.0000 1.0000
27.4700 732.0000 1.0000
27.4800 712.0000 1.0000
27.4900 715.0000 1.0000
27.5000 729.0000 1.0000
27.5100 721.0000 1.0000
27.5200 751.0000 1.0000
27.5300 716.0000 1.0000
27.5400 663.0000 1.0000
27.5500 702.0000 1.0000
27.5600 727.0000 1.0000
27.5700 707.0000 1.0000
27.5800 722.0000 1.0000
27.5900 734.0000 1.0000
27.6000 687.0000 1.0000
27.6100 684.0000 1.0000
27.6200 690.0000 1.0000
27.6300 712.0000 1.0000
27.6400 694.0000 1.0000
27.6500 703.0000 1.0000
27.6600 709.0000 1.0000
27.6700 692.0000 1.0000
27.6800 717.0000 1.0000
27.6900 711.0000 1.0000
27.7000 685.0000 1.0000
27.7100 707.0000 1.0000
27.7200 712.0000 1.0000
27.7300 706.0000 1.0000
27.7400 706.0000 1.0000
27.7500 692.0000 1.0000
27.7600 677.0000 1.0000
27.7700 647.0000 1.0000
27.7800 666.0000 1.0000
27.7900 659.0000 1.0000
27.8000 741.0000 1.0000
27.8100 730.0000 1.0000
27.8200 677.0000 1.0000
27.8300 702.0000 1.0000
27.8400 703.0000 1.0000
27.8500 655.0000 1.0000
27.8600 691.0000 1.0000
27.8700 696.0000 1.0000
27.8800 725.0000 1.0000
27.8900 704.0000 1.0000
27.9000 680.0000 1.0000
27.9100 696.0000 1.0000
27.9200 703.0000 1.0000
27.9300 714.0000 1.0000
27.9400 659.0000 1.0000
27.9500 654.0000 1.0000
27.9600 663.0000 1.0000
27.9700 675.0000 1.0000
27.9800 678.0000 1.0000
27.9900 703.0000 1.0000
28.0000 734.0000 1.0000
28.0100 700.0000 1.0000
28.0200 720.0000 1.0000
28.0300 723.0000 1.0000
28.0400 731.0000 1.0000
28.0500 651.0000 1.0000
28.0600 680.0000 1.0000
28.0700 666.0000 1.0000
28.0800 691.0000 1.0000
28.0900 710.0000 1.0000
28.1000 677.0000 1.0000
28.1100 683.0000 1.0000
28.1200 669.0000 1.0000
28.1300 687.0000 1.0000
28.1400 690.0000 1.0000
28.1500 692.0000 1.0000
28.1600 643.0000 1.0000
28.1700 712.0000 1.0000
28.1800 683.0000 1.0000
28.1900 684.0000 1.0000
28.2000 695.0000 1.0000
28.2100 694.0000 1.0000
28.2200 681.0000 1.0000
28.2300 704.0000 1.0000
28.2400 647.0000 1.0000
28.2500 673.0000 1.0000
28.2600 635.0000 1.0000
28.2700 645.0000 1.0000
28.2800 642.0000 1.0000
28.2900 655.0000 1.0000
28.3000 684.0000 1.0000
28.3100 668.0000 1.0000
28.3200 661.0000 1.0000
28.3300 699.0000 1.0000
28.3400 663.0000 1.0000
28.3500 713.0000 1.0000
28.3600 670.0000 1.0000
28.3700 668.0000 1.0000
28.3800 662.0000 1.0000
28.3900 696.0000 1.0000
28.4000 722.0000 1.0000
28.4100 667.0000 1.0000
28.4200 647.0000 1.0000
28.4300 645.0000 1.0000
28.4400 643.0000 1.0000
28.4500 669.0000 1.0000
28.4600 665.0000 1.0000
28.4700 646.0000 1.0000
28.4800 682.0000 1.0000
28.4900 674.0000 1.0000
28.5000 731.0000 1.0000
28.5100 677.0000 1.0000
28.5200 645.0000 1.0000
28.5300 646.0000 1.0000
28.5400 657.0000 1.0000
28.5500 671.0000 1.0000
28.5600 693.0000 1.0000
28.5700 644.0000 1.0000
28.5800 687.0000 1.0000
28.5900 684.0000 1.0000
28.6000 644.0000 1.0000
28.6100 670.0000 1.0000
28.6200 671.0000 1.0000
28.6300 667.0000 1.0000
28.6400 695.0000 1.0000
28.6500 671.0000 1.0000
28.6600 665.0000 1.0000
28.6700 648.0000 1.0000
28.6800 645.0000 1.0000
28.6900 689.0000 1.0000
28.7000 707.0000 1.0000
28.7100 688.0000 1.0000
28.7200 683.0000 1.0000
28.7300 664.0000 1.0000
28.7400 666.0000 1.0000
28.7500 716.0000 1.0000
28.7600 682.0000 1.0000
28.7700 665.0000 1.0000
28.7800 672.0000 1.0000
28.7900 615.0000 1.0000
28.8000 636.0000 1.0000
28.8100 710.0000 1.0000
28.8200 663.0000 1.0000
28.8300 660.0000 1.0000
28.8400 663.0000 1.0000
28.8500 628.0000 1.0000
28.8600 644.0000 1.0000
28.8700 713.0000 1.0000
28.8800 660.0000 1.0000
28.8900 678.0000 1.0000
28.9000 658.0000 1.0000
28.9100 638.0000 1.0000
28.9200 660.0000 1.0000
28.9300 667.0000 1.0000
28.9400 678.0000 1.0000
28.9500 675.0000 1.0000
28.9600 664.0000 1.0000
28.9700 674.0000 1.0000
28.9800 677.0000 1.0000
28.9900 726.0000 1.0000
29.0000 685.0000 1.0000
29.0100 669.0000 1.0000
29.0200 695.0000 1.0000
29.0300 668.0000 1.0000
29.0400 662.0000 1.0000
29.0500 656.0000 1.0000
29.0600 652.0000 1.0000
29.0700 651.0000 1.0000
29.0800 661.0000 1.0000
29.0900 610.0000 1.0000
29.1000 627.0000 1.0000
29.1100 654.0000 1.0000
29.1200 629.0000 1.0000
29.1300 612.0000 1.0000
29.1400 619.0000 1.0000
29.1500 644.0000 1.0000
29.1600 609.0000 1.0000
29.1700 635.0000 1.0000
29.1800 625.0000 1.0000
29.1900 614.0000 1.0000
29.2000 663.0000 1.0000
29.2100 710.0000 1.0000
29.2200 601.0000 1.0000
29.2300 676.0000 1.0000
29.2400 646.0000 1.0000
29.2500 611.0000 1.0000
29.2600 634.0000 1.0000
29.2700 615.0000 1.0000
29.2800 605.0000 1.0000
29.2900 655.0000 1.0000
29.3000 619.0000 1.0000
29.3100 697.0000 1.0000
29.3200 605.0000 1.0000
29.3300 626.0000 1.0000
29.3400 677.0000 1.0000
29.3500 701.0000 1.0000
29.3600 648.0000 1.0000
29.3700 649.0000 1.0000
29.3800 658.0000 1.0000
29.3900 641.0000 1.0000
29.4000 643.0000 1.0000
29.4100 619.0000 1.0000
29.4200 666.0000 1.0000
29.4300 658.0000 1.0000
29.4400 662.0000 1.0000
29.4500 653.0000 1.0000
29.4600 652.0000 1.0000
29.4700 647.0000 1.0000
29.4800 618.0000 1.0000
29.4900 684.0000 1.0000
29.5000 638.0000 1.0000
29.5100 626.0000 1.0000
29.5200 661.0000 1.0000
29.5300 639.0000 1.0000
29.5400 637.0000 1.0000
29.5500 629.0000 1.0000
29.5600 658.0000 1.0000
29.5700 648.0000 1.0000
29.5800 657.0000 1.0000
29.5900 629.0000 1.0000
29.6000 664.0000 1.0000
29.6100 628.0000 1.0000
29.6200 641.0000 1.0000
29.6300 652.0000 1.0000
29.6400 624.0000 1.0000
29.6500 588.0000 1.0000
29.6600 609.0000 1.0000
29.6700 614.0000 1.0000
29.6800 603.0000 1.0000
29.6900 628.0000 1.0000
29.7000 644.0000 1.0000
29.7100 618.0000 1.0000
29.7200 618.0000 1.0000
29.7300 645.0000 1.0000
29.7400 635.0000 1.0000
29.7500 640.0000 1.0000
29.7600 650.0000 1.0000
29.7700 631.0000 1.0000
29.7800 611.0000 1.0000
29.7900 625.0000 1.0000
29.8000 636.0000 1.0000
29.8100 668.0000 1.0000
29.8200 642.0000 1.0000
29.8300 649.0000 1.0000
29.8400 627.0000 1.0000
29.8500 605.0000 1.0000
29.8600 625.0000 1.0000
29.8700 627.0000 1.0000
29.8800 618.0000 1.0000
29.8900 626.0000 1.0000
29.9000 634.0000 1.0000
29.9100 586.0000 1.0000
29.9200 581.0000 1.0000
29.9300 609.0000 1.0000
29.9400 613.0000 1.0000
29.9500 641.0000 1.0000
29.9600 665.0000 1.0000
29.9700 623.0000 1.0000
29.9800 597.0000 1.0000
29.9900 647.0000 1.0000
30.0000 640.0000 1.0000
30.0100 631.0000 1.0000
30.0200 587.0000 1.0000
30.0300 603.0000 1.0000
30.0400 620.0000 1.0000
30.0500 605.0000 1.0000
30.0600 605.0000 1.0000
30.0700 627.0000 1.0000
30.0800 658.0000 1.0000
30.0900 639.0000 1.0000
30.1000 645.0000 1.0000
30.1100 640.0000 1.0000
30.1200 633.0000 1.0000
30.1300 618.0000 1.0000
30.1400 639.0000 1.0000
30.1500 653.0000 1.0000
30.1600 611.0000 1.0000
30.1700 640.0000 1.0000
30.1800 622.0000 1.0000
30.1900 623.0000 1.0000
30.2000 581.0000 1.0000
30.2100 651.0000 1.0000
30.2200 617.0000 1.0000
30.2300 627.0000 1.0000
30.2400 593.0000 1.0000
30.2500 662.0000 1.0000
30.2600 662.0000 1.0000
30.2700 633.0000 1.0000
30.2800 636.0000 1.0000
30.2900 640.0000 1.0000
30.3000 620.0000 1.0000
30.3100 635.0000 1.0000
30.3200 620.0000 1.0000
30.3300 645.0000 1.0000
30.3400 641.0000 1.0000
30.3500 621.0000 1.0000
30.3600 639.0000 1.0000
30.3700 635.0000 1.0000
30.3800 600.0000 1.0000
30.3900 627.0000 1.0000
30.4000 588.0000 1.0000
30.4100 581.0000 1.0000
30.4200 630.0000 1.0000
30.4300 630.0000 1.0000
30.4400 571.0000 1.0000
30.4500 579.0000 1.0000
30.4600 595.0000 1.0000
30.4700 610.0000 1.0000
30.4800 599.0000 1.0000
30.4900 575.0000 1.0000
30.5000 616.0000 1.0000
30.5100 617.0000 1.0000
30.5200 609.0000 1.0000
30.5300 620.0000 1.0000
30.5400 564.0000 1.0000
30.5500 597.0000 1.0000
30.5600 616.0000 1.0000
30.5700 656.0000 1.0000
30.5800 619.0000 1.0000
30.5900 570.0000 1.0000
30.6000 610.0000 1.0000
30.6100 619.0000 1.0000
30.6200 618.0000 1.0000
30.6300 619.0000 1.0000
30.6400 587.0000 1.0000
30.6500 614.0000 1.0000
30.6600 579.0000 1.0000
30.6700 627.0000 1.0000
30.6800 633.0000 1.0000
30.6900 610.0000 1.0000
30.7000 605.0000 1.0000
30.7100 584.0000 1.0000
30.7200 600.0000 1.0000
30.7300 586.0000 1.0000
30.7400 597.0000 1.0000
30.7500 596.0000 1.0000
30.7600 609.0000 1.0000
30.7700 575.0000 1.0000
30.7800 613.0000 1.0000
30.7900 631.0000 1.0000
30.8000 580.0000 1.0000
30.8100 622.0000 1.0000
30.8200 597.0000 1.0000
30.8300 596.0000 1.0000
30.8400 583.0000 1.0000
30.8500 606.0000 1.0000
30.8600 624.0000 1.0000
30.8700 617.0000 1.0000
30.8800 590.0000 1.0000
30.8900 582.0000 1.0000
30.9000 585.0000 1.0000
30.9100 582.0000 1.0000
30.9200 593.0000 1.0000
30.9300 629.0000 1.0000
30.9400 555.0000 1.0000
30.9500 555.0000 1.0000
30.9600 572.0000 1.0000
30.9700 576.0000 1.0000
30.9800 622.0000 1.0000
30.9900 614.0000 1.0000
31.0000 619.0000 1.0000
31.0100 601.0000 1.0000
31.0200 573.0000 1.0000
31.0300 583.0000 1.0000
31.0400 608.0000 1.0000
31.0500 597.0000 1.0000
31.0600 568.0000 1.0000
31.0700 634.0000 1.0000
31.0800 584.0000 1.0000
31.0900 600.0000 1.0000
31.1000 620.0000 1.0000
31.1100 603.0000 1.0000
31.1200 638.0000 1.0000
31.1300 622.0000 1.0000
31.1400 597.0000 1.0000
31.1500 606.0000 1.0000
31.1600 617.0000 1.0000
31.1700 601.0000 1.0000
31.1800 602.0000 1.0000
31.1900 602.0000 1.0000
31.2000 603.0000 1.0000
31.2100 569.0000 1.0000
31.2200 618.0000 1.0000
31.2300 616.0000 1.0000
31.2400 598.0000 1.0000
31.2500 606.0000 1.0000
31.2600 587.0000 1.0000
31.2700 583.0000 1.0000
31.2800 599.0000 1.0000
31.2900 578.0000 1.0000
31.3000 586.0000 1.0000
31.3100 590.0000 1.0000
31.3200 583.0000 1.0000
31.3300 592.0000 1.0000
31.3400 594.0000 1.0000
31.3500 625.0000 1.0000
31.3600 585.0000 1.0000
31.3700 586.0000 1.0000
31.3800 601.0000 1.0000
31.3900 626.0000 1.0000
31.4000 618.0000 1.0000
31.4100 560.0000 1.0000
31.4200 584.0000 1.0000
31.4300 620.0000 1.0000
31.4400 592.0000 1.0000
31.4500 553.0000 1.0000
31.4600 575.0000 1.0000
31.4700 588.0000 1.0000
31.4800 614.0000 1.0000
31.4900 576.0000 1.0000
31.5000 594.0000 1.0000
31.5100 604.0000 1.0000
31.5200 550.0000 1.0000
31.5300 561.0000 1.0000
31.5400 569.0000 1.0000
31.5500 562.0000 1.0000
31.5600 585.0000 1.0000
31.5700 561.0000 1.0000
31.5800 572.0000 1.0000
31.5900 545.0000 1.0000
31.6000 550.0000 1.0000
31.6100 589.0000 1.0000
31.6200 552.0000 1.0000
31.6300 559.0000 1.0000
31.6400 600.0000 1.0000
31.6500 640.0000 1.0000
31.6600 632.0000 1.0000
31.6700 567.0000 1.0000
31.6800 579.0000 1.0000
31.6900 594.0000 1.0000
31.7000 609.0000 1.0000
31.7100 551.0000 1.0000
31.7200 576.0000 1.0000
31.7300 584.0000 1.0000
31.7400 594.0000 1.0000
31.7500 626.0000 1.0000
31.7600 550.0000 1.0000
31.7700 587.0000 1.0000
31.7800 614.0000 1.0000
31.7900 580.0000 1.0000
31.8000 559.0000 1.0000
31.8100 584.0000 1.0000
31.8200 529.0000 1.0000
31.8300 542.0000 1.0000
31.8400 573.0000 1.0000
31.8500 565.0000 1.0000
31.8600 570.0000 1.0000
31.8700 571.0000 1.0000
31.8800 576.0000 1.0000
31.8900 594.0000 1.0000
31.9000 580.0000 1.0000
31.9100 593.0000 1.0000
31.9200 570.0000 1.0000
31.9300 582.0000 1.0000
31.9400 564.0000 1.0000
31.9500 579.0000 1.0000
31.9600 596.0000 1.0000
31.9700 614.0000 1.0000
31.9800 607.0000 1.0000
31.9900 533.0000 1.0000
32.0000 577.0000 1.0000
32.0100 558.0000 1.0000
32.0200 572.0000 1.0000
32.0300 573.0000 1.0000
32.0400 577.0000 1.0000
32.0500 612.0000 1.0000
32.0600 577.0000 1.0000
32.0700 592.0000 1.0000
32.0800 589.0000 1.0000
32.0900 552.0000 1.0000
32.1000 540.0000 1.0000
32.1100 562.0000 1.0000
32.1200 554.0000 1.0000
32.1300 576.0000 1.0000
32.1400 554.0000 1.0000
32.1500 544.0000 1.0000
32.1600 569.0000 1.0000
32.1700 537.0000 1.0000
32.1800 570.0000 1.0000
32.1900 582.0000 1.0000
32.2000 587.0000 1.0000
32.2100 594.0000 1.0000
32.2200 545.0000 1.0000
32.2300 578.0000 1.0000
32.2400 577.0000 1.0000
32.2500 607.0000 1.0000
32.2600 561.0000 1.0000
32.2700 552.0000 1.0000
32.2800 590.0000 1.0000
32.2900 572.0000 1.0000
32.3000 584.0000 1.0000
32.3100 579.0000 1.0000
32.3200 581.0000 1.0000
32.3300 567.0000 1.0000
32.3400 533.0000 1.0000
32.3500 535.0000 1.0000
32.3600 514.0000 1.0000
32.3700 559.0000 1.0000
32.3800 605.0000 1.0000
32.3900 552.0000 1.0000
32.4000 555.0000 1.0000
32.4100 536.0000 1.0000
32.4200 601.0000 1.0000
32.4300 550.0000 1.0000
32.4400 544.0000 1.0000
32.4500 580.0000 1.0000
32.4600 585.0000 1.0000
32.4700 613.0000 1.0000
32.4800 594.0000 1.0000
32.4900 549.0000 1.0000
32.5000 546.0000 1.0000
32.5100 578.0000 1.0000
32.5200 579.0000 1.0000
32.5300 547.0000 1.0000
32.5400 528.0000 1.0000
32.5500 532.0000 1.0000
32.5600 537.0000 1.0000
32.5700 590.0000 1.0000
32.5800 551.0000 1.0000
32.5900 552.0000 1.0000
32.6000 572.0000 1.0000
32.6100 589.0000 1.0000
32.6200 563.0000 1.0000
32.6300 532.0000 1.0000
32.6400 550.0000 1.0000
32.6500 596.0000 1.0000
32.6600 564.0000 1.0000
32.6700 539.0000 1.0000
32.6800 553.0000 1.0000
32.6900 565.0000 1.0000
32.7000 573.0000 1.0000
32.7100 578.0000 1.0000
32.7200 538.0000 1.0000
32.7300 593.0000 1.0000
32.7400 623.0000 1.0000
32.7500 578.0000 1.0000
32.7600 594.0000 1.0000
32.7700 548.0000 1.0000
32.7800 579.0000 1.0000
32.7900 599.0000 1.0000
32.8000 571.0000 1.0000
32.8100 534.0000 1.0000
32.8200 557.0000 1.0000
32.8300 596.0000 1.0000
32.8400 592.0000 1.0000
32.8500 589.0000 1.0000
32.8600 566.0000 1.0000
32.8700 571.0000 1.0000
32.8800 600.0000 1.0000
32.8900 624.0000 1.0000
32.9000 573.0000 1.0000
32.9100 556.0000 1.0000
32.9200 598.0000 1.0000
32.9300 617.0000 1.0000
32.9400 593.0000 1.0000
32.9500 596.0000 1.0000
32.9600 627.0000 1.0000
32.9700 629.0000 1.0000
32.9800 613.0000 1.0000
32.9900 615.0000 1.0000
33.0000 637.0000 1.0000
33.0100 645.0000 1.0000
33.0200 577.0000 1.0000
33.0300 625.0000 1.0000
33.0400 603.0000 1.0000
33.0500 596.0000 1.0000
33.0600 668.0000 1.0000
33.0700 621.0000 1.0000
33.0800 640.0000 1.0000
33.0900 657.0000 1.0000
33.1000 637.0000 1.0000
33.1100 665.0000 1.0000
33.1200 573.0000 1.0000
33.1300 625.0000 1.0000
33.1400 649.0000 1.0000
33.1500 613.0000 1.0000
33.1600 615.0000 1.0000
33.1700 618.0000 1.0000
33.1800 637.0000 1.0000
33.1900 674.0000 1.0000
33.2000 620.0000 1.0000
33.2100 620.0000 1.0000
33.2200 603.0000 1.0000
33.2300 653.0000 1.0000
33.2400 630.0000 1.0000
33.2500 651.0000 1.0000
33.2600 657.0000 1.0000
33.2700 662.0000 1.0000
33.2800 637.0000 1.0000
33.2900 650.0000 1.0000
33.3000 613.0000 1.0000
33.3100 608.0000 1.0000
33.3200 591.0000 1.0000
33.3300 635.0000 1.0000
33.3400 622.0000 1.0000
33.3500 658.0000 1.0000
33.3600 660.0000 1.0000
33.3700 675.0000 1.0000
33.3800 673.0000 1.0000
33.3900 616.0000 1.0000
33.4000 693.0000 1.0000
33.4100 721.0000 1.0000
33.4200 697.0000 1.0000
33.4300 719.0000 1.0000
33.4400 758.0000 1.0000
33.4500 736.0000 1.0000
33.4600 728.0000 1.0000
33.4700 775.0000 1.0000
33.4800 829.0000 1.0000
33.4900 890.0000 1.0000
33.5000 847.0000 1.0000
33.5100 900.0000 1.0000
33.5200 951.0000 1.0000
33.5300 973.0000 1.0000
33.5400 997.0000 1.0000
33.5500 1058.0000 1.0000
33.5600 1098.0000 1.0000
33.5700 1115.0000 1.0000
33.5800 1204.0000 1.0000
33.5900 1275.0000 1.0000
33.6000 1373.0000 1.0000
33.6100 1309.0000 1.0000
33.6200 1347.0000 1.0000
33.6300 1393.0000 1.0000
33.6400 1460.0000 1.0000
33.6500 1413.0000 1.0000
33.6600 1372.0000 1.0000
33.6700 1404.0000 1.0000
33.6800 1405.0000 1.0000
33.6900 1360.0000 1.0000
33.7000 1307.0000 1.0000
33.7100 1232.0000 1.0000
33.7200 1203.0000 1.0000
33.7300 1212.0000 1.0000
33.7400 1160.0000 1.0000
33.7500 1130.0000 1.0000
33.7600 1049.0000 1.0000
33.7700 1025.0000 1.0000
33.7800 967.0000 1.0000
33.7900 919.0000 1.0000
33.8000 958.0000 1.0000
33.8100 859.0000 1.0000
33.8200 796.0000 1.0000
33.8300 809.0000 1.0000
33.8400 786.0000 1.0000
33.8500 774.0000 1.0000
33.8600 728.0000 1.0000
33.8700 707.0000 1.0000
33.8800 696.0000 1.0000
33.8900 723.0000 1.0000
33.9000 716.0000 1.0000
33.9100 709.0000 1.0000
33.9200 663.0000 1.0000
33.9300 649.0000 1.0000
33.9400 649.0000 1.0000
33.9500 658.0000 1.0000
33.9600 634.0000 1.0000
33.9700 620.0000 1.0000
33.9800 629.0000 1.0000
33.9900 612.0000 1.0000
34.0000 619.0000 1.0000
34.0100 576.0000 1.0000
34.0200 625.0000 1.0000
34.0300 650.0000 1.0000
34.0400 597.0000 1.0000
34.0500 579.0000 1.0000
34.0600 586.0000 1.0000
34.0700 585.0000 1.0000
34.0800 583.0000 1.0000
34.0900 579.0000 1.0000
34.1000 555.0000 1.0000
34.1100 573.0000 1.0000
34.1200 567.0000 1.0000
34.1300 580.0000 1.0000
34.1400 525.0000 1.0000
34.1500 506.0000 1.0000
34.1600 533.0000 1.0000
34.1700 540.0000 1.0000
34.1800 541.0000 1.0000
34.1900 557.0000 1.0000
34.2000 548.0000 1.0000
34.2100 531.0000 1.0000
34.2200 528.0000 1.0000
34.2300 521.0000 1.0000
34.2400 540.0000 1.0000
34.2500 509.0000 1.0000
34.2600 524.0000 1.0000
34.2700 562.0000 1.0000
34.2800 535.0000 1.0000
34.2900 517.0000 1.0000
34.3000 548.0000 1.0000
34.3100 512.0000 1.0000
34.3200 504.0000 1.0000
34.3300 517.0000 1.0000
34.3400 525.0000 1.0000
34.3500 507.0000 1.0000
34.3600 461.0000 1.0000
34.3700 506.0000 1.0000
34.3800 486.0000 1.0000
34.3900 539.0000 1.0000
34.4000 509.0000 1.0000
34.4100 513.0000 1.0000
34.4200 475.0000 1.0000
34.4300 511.0000 1.0000
34.4400 508.0000 1.0000
34.4500 474.0000 1.0000
34.4600 506.0000 1.0000
34.4700 487.0000 1.0000
34.4800 487.0000 1.0000
34.4900 496.0000 1.0000
34.5000 515.0000 1.0000
34.5100 551.0000 1.0000
34.5200 447.0000 1.0000
34.5300 518.0000 1.0000
34.5400 498.0000 1.0000
34.5500 528.0000 1.0000
34.5600 519.0000 1.0000
34.5700 508.0000 1.0000
34.5800 513.0000 1.0000
34.5900 501.0000 1.0000
34.6000 470.0000 1.0000
34.6100 500.0000 1.0000
34.6200 501.0000 1.0000
34.6300 496.0000 1.0000
34.6400 514.0000 1.0000
34.6500 510.0000 1.0000
34.6600 520.0000 1.0000
34.6700 486.0000 1.0000
34.6800 495.0000 1.0000
34.6900 496.0000 1.0000
34.7000 488.0000 1.0000
34.7100 501.0000 1.0000
34.7200 528.0000 1.0000
34.7300 522.0000 1.0000
34.7400 530.0000 1.0000
34.7500 487.0000 1.0000
34.7600 487.0000 1.0000
34.7700 506.0000 1.0000
34.7800 509.0000 1.0000
34.7900 498.0000 1.0000
34.8000 499.0000 1.0000
34.8100 463.0000 1.0000
34.8200 503.0000 1.0000
34.8300 527.0000 1.0000
34.8400 463.0000 1.0000
34.8500 464.0000 1.0000
34.8600 501.0000 1.0000
34.8700 496.0000 1.0000
34.8800 497.0000 1.0000
34.8900 485.0000 1.0000
34.9000 499.0000 1.0000
34.9100 489.0000 1.0000
34.9200 456.0000 1.0000
34.9300 458.0000 1.0000
34.9400 437.0000 1.0000
34.9500 499.0000 1.0000
34.9600 509.0000 1.0000
34.9700 475.0000 1.0000
34.9800 466.0000 1.0000
34.9900 492.0000 1.0000
35.0000 484.0000 1.0000
35.0100 470.0000 1.0000
35.0200 456.0000 1.0000
35.0300 497.0000 1.0000
35.0400 482.0000 1.0000
35.0500 486.0000 1.0000
35.0600 489.0000 1.0000
35.0700 524.0000 1.0000
35.0800 503.0000 1.0000
35.0900 476.0000 1.0000
35.1000 482.0000 1.0000
35.1100 460.0000 1.0000
35.1200 486.0000 1.0000
35.1300 516.0000 1.0000
35.1400 503.0000 1.0000
35.1500 464.0000 1.0000
35.1600 470.0000 1.0000
35.1700 475.0000 1.0000
35.1800 517.0000 1.0000
35.1900 526.0000 1.0000
35.2000 482.0000 1.0000
35.2100 503.0000 1.0000
35.2200 466.0000 1.0000
35.2300 495.0000 1.0000
35.2400 488.0000 1.0000
35.2500 525.0000 1.0000
35.2600 519.0000 1.0000
35.2700 576.0000 1.0000
35.2800 555.0000 1.0000
35.2900 501.0000 1.0000
35.3000 555.0000 1.0000
35.3100 521.0000 1.0000
35.3200 513.0000 1.0000
35.3300 552.0000 1.0000
35.3400 545.0000 1.0000
35.3500 550.0000 1.0000
35.3600 571.0000 1.0000
35.3700 578.0000 1.0000
35.3800 561.0000 1.0000
35.3900 547.0000 1.0000
35.4000 583.0000 1.0000
35.4100 632.0000 1.0000
35.4200 647.0000 1.0000
35.4300 657.0000 1.0000
35.4400 654.0000 1.0000
35.4500 662.0000 1.0000
35.4600 689.0000 1.0000
35.4700 729.0000 1.0000
35.4800 803.0000 1.0000
35.4900 786.0000 1.0000
35.5000 846.0000 1.0000
35.5100 820.0000 1.0000
35.5200 824.0000 1.0000
35.5300 866.0000 1.0000
35.5400 843.0000 1.0000
35.5500 877.0000 1.0000
35.5600 882.0000 1.0000
35.5700 891.0000 1.0000
35.5800 885.0000 1.0000
35.5900 858.0000 1.0000
35.6000 836.0000 1.0000
35.6100 878.0000 1.0000
35.6200 849.0000 1.0000
35.6300 836.0000 1.0000
35.6400 813.0000 1.0000
35.6500 758.0000 1.0000
35.6600 775.0000 1.0000
35.6700 730.0000 1.0000
35.6800 727.0000 1.0000
35.6900 712.0000 1.0000
35.7000 640.0000 1.0000
35.7100 636.0000 1.0000
35.7200 593.0000 1.0000
35.7300 604.0000 1.0000
35.7400 662.0000 1.0000
35.7500 572.0000 1.0000
35.7600 580.0000 1.0000
35.7700 604.0000 1.0000
35.7800 580.0000 1.0000
35.7900 507.0000 1.0000
35.8000 559.0000 1.0000
35.8100 550.0000 1.0000
35.8200 556.0000 1.0000
35.8300 511.0000 1.0000
35.8400 516.0000 1.0000
35.8500 502.0000 1.0000
35.8600 469.0000 1.0000
35.8700 512.0000 1.0000
35.8800 466.0000 1.0000
35.8900 484.0000 1.0000
35.9000 499.0000 1.0000
35.9100 497.0000 1.0000
35.9200 475.0000 1.0000
35.9300 481.0000 1.0000
35.9400 504.0000 1.0000
35.9500 500.0000 1.0000
35.9600 480.0000 1.0000
35.9700 484.0000 1.0000
35.9800 462.0000 1.0000
35.9900 466.0000 1.0000
36.0000 486.0000 1.0000
36.0100 475.0000 1.0000
36.0200 459.0000 1.0000
36.0300 508.0000 1.0000
36.0400 480.0000 1.0000
36.0500 496.0000 1.0000
36.0600 449.0000 1.0000
36.0700 451.0000 1.0000
36.0800 473.0000 1.0000
36.0900 471.0000 1.0000
36.1000 449.0000 1.0000
36.1100 485.0000 1.0000
36.1200 460.0000 1.0000
36.1300 467.0000 1.0000
36.1400 479.0000 1.0000
36.1500 472.0000 1.0000
36.1600 456.0000 1.0000
36.1700 450.0000 1.0000
36.1800 429.0000 1.0000
36.1900 413.0000 1.0000
36.2000 480.0000 1.0000
36.2100 427.0000 1.0000
36.2200 457.0000 1.0000
36.2300 433.0000 1.0000
36.2400 449.0000 1.0000
36.2500 449.0000 1.0000
36.2600 484.0000 1.0000
36.2700 456.0000 1.0000
36.2800 453.0000 1.0000
36.2900 455.0000 1.0000
36.3000 427.0000 1.0000
36.3100 420.0000 1.0000
36.3200 433.0000 1.0000
36.3300 486.0000 1.0000
36.3400 460.0000 1.0000
36.3500 465.0000 1.0000
36.3600 463.0000 1.0000
36.3700 440.0000 1.0000
36.3800 436.0000 1.0000
36.3900 448.0000 1.0000
36.4000 468.0000 1.0000
36.4100 463.0000 1.0000
36.4200 449.0000 1.0000
36.4300 458.0000 1.0000
36.4400 430.0000 1.0000
36.4500 459.0000 1.0000
36.4600 456.0000 1.0000
36.4700 448.0000 1.0000
36.4800 446.0000 1.0000
36.4900 433.0000 1.0000
36.5000 445.0000 1.0000
36.5100 428.0000 1.0000
36.5200 438.0000 1.0000
36.5300 443.0000 1.0000
36.5400 436.0000 1.0000
36.5500 445.0000 1.0000
36.5600 455.0000 1.0000
36.5700 482.0000 1.0000
36.5800 459.0000 1.0000
36.5900 447.0000 1.0000
36.6000 459.0000 1.0000
36.6100 434.0000 1.0000
36.6200 459.0000 1.0000
36.6300 438.0000 1.0000
36.6400 438.0000 1.0000
36.6500 443.0000 1.0000
36.6600 441.0000 1.0000
36.6700 437.0000 1.0000
36.6800 444.0000 1.0000
36.6900 461.0000 1.0000
36.7000 436.0000 1.0000
36.7100 485.0000 1.0000
36.7200 457.0000 1.0000
36.7300 473.0000 1.0000
36.7400 474.0000 1.0000
36.7500 457.0000 1.0000
36.7600 436.0000 1.0000
36.7700 449.0000 1.0000
36.7800 429.0000 1.0000
36.7900 443.0000 1.0000
36.8000 446.0000 1.0000
36.8100 460.0000 1.0000
36.8200 469.0000 1.0000
36.8300 456.0000 1.0000
36.8400 431.0000 1.0000
36.8500 421.0000 1.0000
36.8600 421.0000 1.0000
36.8700 446.0000 1.0000
36.8800 464.0000 1.0000
36.8900 425.0000 1.0000
36.9000 484.0000 1.0000
36.9100 492.0000 1.0000
36.9200 454.0000 1.0000
36.9300 417.0000 1.0000
36.9400 446.0000 1.0000
36.9500 485.0000 1.0000
36.9600 459.0000 1.0000
36.9700 449.0000 1.0000
36.9800 431.0000 1.0000
36.9900 437.0000 1.0000
37.0000 471.0000 1.0000
37.0100 434.0000 1.0000
37.0200 458.0000 1.0000
37.0300 455.0000 1.0000
37.0400 450.0000 1.0000
37.0500 468.0000 1.0000
37.0600 452.0000 1.0000
37.0700 473.0000 1.0000
37.0800 442.0000 1.0000
37.0900 454.0000 1.0000
37.1000 438.0000 1.0000
37.1100 435.0000 1.0000
37.1200 442.0000 1.0000
37.1300 464.0000 1.0000
37.1400 470.0000 1.0000
37.1500 489.0000 1.0000
37.1600 481.0000 1.0000
37.1700 487.0000 1.0000
37.1800 498.0000 1.0000
37.1900 439.0000 1.0000
37.2000 448.0000 1.0000
37.2100 475.0000 1.0000
37.2200 473.0000 1.0000
37.2300 480.0000 1.0000
37.2400 511.0000 1.0000
37.2500 512.0000 1.0000
37.2600 496.0000 1.0000
37.2700 466.0000 1.0000
37.2800 508.0000 1.0000
37.2900 501.0000 1.0000
37.3000 484.0000 1.0000
37.3100 475.0000 1.0000
37.3200 514.0000 1.0000
37.3300 521.0000 1.0000
37.3400 563.0000 1.0000
37.3500 590.0000 1.0000
37.3600 554.0000 1.0000
37.3700 603.0000 1.0000
37.3800 617.0000 1.0000
37.3900 602.0000 1.0000
37.4000 599.0000 1.0000
37.4100 614.0000 1.0000
37.4200 664.0000 1.0000
37.4300 665.0000 1.0000
37.4400 678.0000 1.0000
37.4500 672.0000 1.0000
37.4600 731.0000 1.0000
37.4700 770.0000 1.0000
37.4800 818.0000 1.0000
37.4900 818.0000 1.0000
37.5000 915.0000 1.0000
37.5100 930.0000 1.0000
37.5200 943.0000 1.0000
37.5300 989.0000 1.0000
37.5400 1072.0000 1.0000
37.5500 1153.0000 1.0000
37.5600 1238.0000 1.0000
37.5700 1257.0000 1.0000
37.5800 1373.0000 1.0000
37.5900 1510.0000 1.0000
37.6000 1622.0000 1.0000
37.6100 1682.0000 1.0000
37.6200 1798.0000 1.0000
37.6300 1886.0000 1.0000
37.6400 1960.0000 1.0000
37.6500 1998.0000 1.0000
37.6600 2012.0000 1.0000
37.6700 2062.0000 1.0000
37.6800 2087.0000 1.0000
37.6900 2128.0000 1.0000
37.7000 2193.0000 1.0000
37.7100 2207.0000 1.0000
37.7200 2038.0000 1.0000
37.7300 2035.0000 1.0000
37.7400 2046.0000 1.0000
37.7500 1919.0000 1.0000
37.7600 1945.0000 1.0000
37.7700 1763.0000 1.0000
37.7800 1730.0000 1.0000
37.7900 1717.0000 1.0000
37.8000 1672.0000 1.0000
37.8100 1598.0000 1.0000
37.8200 1497.0000 1.0000
37.8300 1398.0000 1.0000
37.8400 1317.0000 1.0000
37.8500 1280.0000 1.0000
37.8600 1192.0000 1.0000
37.8700 1178.0000 1.0000
37.8800 1104.0000 1.0000
37.8900 1014.0000 1.0000
37.9000 943.0000 1.0000
37.9100 900.0000 1.0000
37.9200 954.0000 1.0000
37.9300 865.0000 1.0000
37.9400 792.0000 1.0000
37.9500 777.0000 1.0000
37.9600 717.0000 1.0000
37.9700 711.0000 1.0000
37.9800 699.0000 1.0000
37.9900 690.0000 1.0000
38.0000 665.0000 1.0000
38.0100 675.0000 1.0000
38.0200 615.0000 1.0000
38.0300 602.0000 1.0000
38.0400 577.0000 1.0000
38.0500 576.0000 1.0000
38.0600 576.0000 1.0000
38.0700 580.0000 1.0000
38.0800 521.0000 1.0000
38.0900 494.0000 1.0000
38.1000 469.0000 1.0000
38.1100 491.0000 1.0000
38.1200 506.0000 1.0000
38.1300 502.0000 1.0000
38.1400 484.0000 1.0000
38.1500 475.0000 1.0000
38.1600 454.0000 1.0000
38.1700 465.0000 1.0000
38.1800 524.0000 1.0000
38.1900 415.0000 1.0000
38.2000 446.0000 1.0000
38.2100 456.0000 1.0000
38.2200 443.0000 1.0000
38.2300 474.0000 1.0000
38.2400 434.0000 1.0000
38.2500 447.0000 1.0000
38.2600 392.0000 1.0000
38.2700 433.0000 1.0000
38.2800 429.0000 1.0000
38.2900 415.0000 1.0000
38.3000 401.0000 1.0000
38.3100 410.0000 1.0000
38.3200 379.0000 1.0000
38.3300 429.0000 1.0000
38.3400 444.0000 1.0000
38.3500 426.0000 1.0000
38.3600 427.0000 1.0000
38.3700 398.0000 1.0000
38.3800 414.0000 1.0000
38.3900 380.0000 1.0000
38.4000 408.0000 1.0000
38.4100 422.0000 1.0000
38.4200 416.0000 1.0000
38.4300 424.0000 1.0000
38.4400 430.0000 1.0000
38.4500 421.0000 1.0000
38.4600 385.0000 1.0000
38.4700 398.0000 1.0000
38.4800 422.0000 1.0000
38.4900 421.0000 1.0000
38.5000 402.0000 1.0000
38.5100 424.0000 1.0000
38.5200 418.0000 1.0000
38.5300 403.0000 1.0000
38.5400 434.0000 1.0000
38.5500 425.0000 1.0000
38.5600 408.0000 1.0000
38.5700 434.0000 1.0000
38.5800 404.0000 1.0000
38.5900 447.0000 1.0000
38.6000 445.0000 1.0000
38.6100 440.0000 1.0000
38.6200 429.0000 1.0000
38.6300 395.0000 1.0000
38.6400 412.0000 1.0000
38.6500 420.0000 1.0000
38.6600 409.0000 1.0000
38.6700 416.0000 1.0000
38.6800 413.0000 1.0000
38.6900 431.0000 1.0000
38.7000 411.0000 1.0000
38.7100 423.0000 1.0000
38.7200 423.0000 1.0000
38.7300 433.0000 1.0000
38.7400 413.0000 1.0000
38.7500 435.0000 1.0000
38.7600 409.0000 1.0000
38.7700 436.0000 1.0000
38.7800 444.0000 1.0000
38.7900 413.0000 1.0000
38.8000 400.0000 1.0000
38.8100 414.0000 1.0000
38.8200 422.0000 1.0000
38.8300 404.0000 1.0000
38.8400 459.0000 1.0000
38.8500 401.0000 1.0000
38.8600 390.0000 1.0000
38.8700 416.0000 1.0000
38.8800 426.0000 1.0000
38.8900 429.0000 1.0000
38.9000 420.0000 1.0000
38.9100 402.0000 1.0000
38.9200 469.0000 1.0000
38.9300 403.0000 1.0000
38.9400 378.0000 1.0000
38.9500 408.0000 1.0000
38.9600 428.0000 1.0000
38.9700 447.0000 1.0000
38.9800 422.0000 1.0000
38.9900 403.0000 1.0000
39.0000 411.0000 1.0000
39.0100 406.0000 1.0000
39.0200 403.0000 1.0000
39.0300 404.0000 1.0000
39.0400 414.0000 1.0000
39.0500 383.0000 1.0000
39.0600 400.0000 1.0000
39.0700 392.0000 1.0000
39.0800 405.0000 1.0000
39.0900 404.0000 1.0000
39.1000 375.0000 1.0000
39.1100 406.0000 1.0000
39.1200 413.0000 1.0000
39.1300 385.0000 1.0000
39.1400 402.0000 1.0000
39.1500 378.0000 1.0000
39.1600 408.0000 1.0000
39.1700 391.0000 1.0000
39.1800 380.0000 1.0000
39.1900 411.0000 1.0000
39.2000 397.0000 1.0000
39.2100 413.0000 1.0000
39.2200 400.0000 1.0000
39.2300 371.0000 1.0000
39.2400 384.0000 1.0000
39.2500 396.0000 1.0000
39.2600 383.0000 1.0000
39.2700 361.0000 1.0000
39.2800 380.0000 1.0000
39.2900 382.0000 1.0000
39.3000 385.0000 1.0000
39.3100 381.0000 1.0000
39.3200 396.0000 1.0000
39.3300 365.0000 1.0000
39.3400 379.0000 1.0000
39.3500 395.0000 1.0000
39.3600 393.0000 1.0000
39.3700 351.0000 1.0000
39.3800 391.0000 1.0000
39.3900 381.0000 1.0000
39.4000 375.0000 1.0000
39.4100 385.0000 1.0000
39.4200 393.0000 1.0000
39.4300 394.0000 1.0000
39.4400 394.0000 1.0000
39.4500 371.0000 1.0000
39.4600 379.0000 1.0000
39.4700 377.0000 1.0000
39.4800 365.0000 1.0000
39.4900 362.0000 1.0000
39.5000 363.0000 1.0000
39.5100 355.0000 1.0000
39.5200 394.0000 1.0000
39.5300 377.0000 1.0000
39.5400 366.0000 1.0000
39.5500 369.0000 1.0000
39.5600 381.0000 1.0000
39.5700 368.0000 1.0000
39.5800 380.0000 1.0000
39.5900 385.0000 1.0000
39.6000 349.0000 1.0000
39.6100 387.0000 1.0000
39.6200 364.0000 1.0000
39.6300 369.0000 1.0000
39.6400 366.0000 1.0000
39.6500 371.0000 1.0000
39.6600 346.0000 1.0000
39.6700 365.0000 1.0000
39.6800 352.0000 1.0000
39.6900 359.0000 1.0000
39.7000 348.0000 1.0000
39.7100 357.0000 1.0000
39.7200 390.0000 1.0000
39.7300 362.0000 1.0000
39.7400 338.0000 1.0000
39.7500 369.0000 1.0000
39.7600 364.0000 1.0000
39.7700 379.0000 1.0000
39.7800 366.0000 1.0000
39.7900 366.0000 1.0000
39.8000 349.0000 1.0000
39.8100 371.0000 1.0000
39.8200 366.0000 1.0000
39.8300 388.0000 1.0000
39.8400 371.0000 1.0000
39.8500 416.0000 1.0000
39.8600 384.0000 1.0000
39.8700 386.0000 1.0000
39.8800 374.0000 1.0000
39.8900 365.0000 1.0000
39.9000 391.0000 1.0000
39.9100 372.0000 1.0000
39.9200 404.0000 1.0000
39.9300 377.0000 1.0000
39.9400 356.0000 1.0000
39.9500 385.0000 1.0000
39.9600 385.0000 1.0000
39.9700 377.0000 1.0000
39.9800 356.0000 1.0000
39.9900 365.0000 1.0000
40.0000 340.0000 1.0000
40.0100 364.0000 1.0000
40.0200 366.0000 1.0000
40.0300 363.0000 1.0000
40.0400 399.0000 1.0000
40.0500 379.0000 1.0000
40.0600 380.0000 1.0000
40.0700 348.0000 1.0000
40.0800 357.0000 1.0000
40.0900 365.0000 1.0000
40.1000 339.0000 1.0000
40.1100 364.0000 1.0000
40.1200 365.0000 1.0000
40.1300 364.0000 1.0000
40.1400 381.0000 1.0000
40.1500 389.0000 1.0000
40.1600 356.0000 1.0000
40.1700 350.0000 1.0000
40.1800 380.0000 1.0000
40.1900 356.0000 1.0000
40.2000 357.0000 1.0000
40.2100 360.0000 1.0000
40.2200 392.0000 1.0000
40.2300 401.0000 1.0000
40.2400 375.0000 1.0000
40.2500 357.0000 1.0000
40.2600 373.0000 1.0000
40.2700 368.0000 1.0000
40.2800 386.0000 1.0000
40.2900 372.0000 1.0000
40.3000 378.0000 1.0000
40.3100 371.0000 1.0000
40.3200 343.0000 1.0000
40.3300 346.0000 1.0000
40.3400 376.0000 1.0000
40.3500 372.0000 1.0000
40.3600 350.0000 1.0000
40.3700 366.0000 1.0000
40.3800 385.0000 1.0000
40.3900 379.0000 1.0000
40.4000 387.0000 1.0000
40.4100 360.0000 1.0000
40.4200 351.0000 1.0000
40.4300 360.0000 1.0000
40.4400 380.0000 1.0000
40.4500 356.0000 1.0000
40.4600 372.0000 1.0000
40.4700 355.0000 1.0000
40.4800 344.0000 1.0000
40.4900 352.0000 1.0000
40.5000 380.0000 1.0000
40.5100 364.0000 1.0000
40.5200 384.0000 1.0000
40.5300 392.0000 1.0000
40.5400 392.0000 1.0000
40.5500 391.0000 1.0000
40.5600 380.0000 1.0000
40.5700 393.0000 1.0000
40.5800 352.0000 1.0000
40.5900 368.0000 1.0000
40.6000 347.0000 1.0000
40.6100 377.0000 1.0000
40.6200 378.0000 1.0000
40.6300 372.0000 1.0000
40.6400 368.0000 1.0000
40.6500 366.0000 1.0000
40.6600 335.0000 1.0000
40.6700 361.0000 1.0000
40.6800 390.0000 1.0000
40.6900 395.0000 1.0000
40.7000 361.0000 1.0000
40.7100 343.0000 1.0000
40.7200 376.0000 1.0000
40.7300 368.0000 1.0000
40.7400 367.0000 1.0000
40.7500 362.0000 1.0000
40.7600 386.0000 1.0000
40.7700 389.0000 1.0000
40.7800 379.0000 1.0000
40.7900 394.0000 1.0000
40.8000 431.0000 1.0000
40.8100 386.0000 1.0000
40.8200 375.0000 1.0000
40.8300 388.0000 1.0000
40.8400 378.0000 1.0000
40.8500 352.0000 1.0000
40.8600 388.0000 1.0000
40.8700 417.0000 1.0000
40.8800 401.0000 1.0000
40.8900 398.0000 1.0000
40.9000 340.0000 1.0000
40.9100 356.0000 1.0000
40.9200 385.0000 1.0000
40.9300 355.0000 1.0000
40.9400 352.0000 1.0000
40.9500 373.0000 1.0000
40.9600 365.0000 1.0000
40.9700 364.0000 1.0000
40.9800 368.0000 1.0000
40.9900 399.0000 1.0000
41.0000 363.0000 1.0000
41.0100 367.0000 1.0000
41.0200 356.0000 1.0000
41.0300 373.0000 1.0000
41.0400 353.0000 1.0000
41.0500 394.0000 1.0000
41.0600 405.0000 1.0000
41.0700 378.0000 1.0000
41.0800 369.0000 1.0000
41.0900 408.0000 1.0000
41.1000 355.0000 1.0000
41.1100 360.0000 1.0000
41.1200 376.0000 1.0000
41.1300 352.0000 1.0000
41.1400 362.0000 1.0000
41.1500 381.0000 1.0000
41.1600 359.0000 1.0000
41.1700 375.0000 1.0000
41.1800 374.0000 1.0000
41.1900 381.0000 1.0000
41.2000 356.0000 1.0000
41.2100 367.0000 1.0000
41.2200 369.0000 1.0000
41.2300 366.0000 1.0000
41.2400 350.0000 1.0000
41.2500 346.0000 1.0000
41.2600 333.0000 1.0000
41.2700 385.0000 1.0000
41.2800 355.0000 1.0000
41.2900 365.0000 1.0000
41.3000 379.0000 1.0000
41.3100 370.0000 1.0000
41.3200 339.0000 1.0000
41.3300 373.0000 1.0000
41.3400 373.0000 1.0000
41.3500 356.0000 1.0000
41.3600 363.0000 1.0000
41.3700 376.0000 1.0000
41.3800 375.0000 1.0000
41.3900 369.0000 1.0000
41.4000 354.0000 1.0000
41.4100 404.0000 1.0000
41.4200 364.0000 1.0000
41.4300 351.0000 1.0000
41.4400 354.0000 1.0000
41.4500 351.0000 1.0000
41.4600 344.0000 1.0000
41.4700 354.0000 1.0000
41.4800 358.0000 1.0000
41.4900 354.0000 1.0000
41.5000 339.0000 1.0000
41.5100 367.0000 1.0000
41.5200 356.0000 1.0000
41.5300 374.0000 1.0000
41.5400 360.0000 1.0000
41.5500 359.0000 1.0000
41.5600 386.0000 1.0000
41.5700 343.0000 1.0000
41.5800 338.0000 1.0000
41.5900 370.0000 1.0000
41.6000 354.0000 1.0000
41.6100 371.0000 1.0000
41.6200 371.0000 1.0000
41.6300 358.0000 1.0000
41.6400 354.0000 1.0000
41.6500 324.0000 1.0000
41.6600 378.0000 1.0000
41.6700 360.0000 1.0000
41.6800 375.0000 1.0000
41.6900 371.0000 1.0000
41.7000 363.0000 1.0000
41.7100 352.0000 1.0000
41.7200 364.0000 1.0000
41.7300 359.0000 1.0000
41.7400 365.0000 1.0000
41.7500 347.0000 1.0000
41.7600 353.0000 1.0000
41.7700 351.0000 1.0000
41.7800 350.0000 1.0000
41.7900 353.0000 1.0000
41.8000 374.0000 1.0000
41.8100 374.0000 1.0000
41.8200 334.0000 1.0000
41.8300 355.0000 1.0000
41.8400 394.0000 1.0000
41.8500 380.0000 1.0000
41.8600 317.0000 1.0000
41.8700 362.0000 1.0000
41.8800 367.0000 1.0000
41.8900 329.0000 1.0000
41.9000 367.0000 1.0000
41.9100 345.0000 1.0000
41.9200 391.0000 1.0000
41.9300 379.0000 1.0000
41.9400 349.0000 1.0000
41.9500 378.0000 1.0000
41.9600 389.0000 1.0000
41.9700 346.0000 1.0000
41.9800 323.0000 1.0000
41.9900 331.0000 1.0000
42.0000 325.0000 1.0000
42.0100 367.0000 1.0000
42.0200 347.0000 1.0000
42.0300 383.0000 1.0000
42.0400 387.0000 1.0000
42.0500 370.0000 1.0000
42.0600 373.0000 1.0000
42.0700 343.0000 1.0000
42.0800 358.0000 1.0000
42.0900 362.0000 1.0000
42.1000 350.0000 1.0000
42.1100 348.0000 1.0000
42.1200 344.0000 1.0000
42.1300 336.0000 1.0000
42.1400 352.0000 1.0000
42.1500 376.0000 1.0000
42.1600 368.0000 1.0000
42.1700 384.0000 1.0000
42.1800 364.0000 1.0000
42.1900 358.0000 1.0000
42.2000 368.0000 1.0000
42.2100 359.0000 1.0000
42.2200 384.0000 1.0000
42.2300 384.0000 1.0000
42.2400 383.0000 1.0000
42.2500 405.0000 1.0000
42.2600 357.0000 1.0000
42.2700 393.0000 1.0000
42.2800 365.0000 1.0000
42.2900 387.0000 1.0000
42.3000 385.0000 1.0000
42.3100 401.0000 1.0000
42.3200 404.0000 1.0000
42.3300 367.0000 1.0000
42.3400 379.0000 1.0000
42.3500 391.0000 1.0000
42.3600 400.0000 1.0000
42.3700 361.0000 1.0000
42.3800 355.0000 1.0000
42.3900 398.0000 1.0000
42.4000 378.0000 1.0000
42.4100 390.0000 1.0000
42.4200 387.0000 1.0000
42.4300 393.0000 1.0000
42.4400 394.0000 1.0000
42.4500 369.0000 1.0000
42.4600 382.0000 1.0000
42.4700 358.0000 1.0000
42.4800 379.0000 1.0000
42.4900 365.0000 1.0000
42.5000 376.0000 1.0000
42.5100 376.0000 1.0000
42.5200 369.0000 1.0000
42.5300 366.0000 1.0000
42.5400 372.0000 1.0000
42.5500 365.0000 1.0000
42.5600 351.0000 1.0000
42.5700 376.0000 1.0000
42.5800 387.0000 1.0000
42.5900 358.0000 1.0000
42.6000 378.0000 1.0000
42.6100 344.0000 1.0000
42.6200 360.0000 1.0000
42.6300 350.0000 1.0000
42.6400 362.0000 1.0000
42.6500 331.0000 1.0000
42.6600 312.0000 1.0000
42.6700 388.0000 1.0000
42.6800 339.0000 1.0000
42.6900 318.0000 1.0000
42.7000 370.0000 1.0000
42.7100 369.0000 1.0000
42.7200 340.0000 1.0000
42.7300 376.0000 1.0000
42.7400 353.0000 1.0000
42.7500 389.0000 1.0000
42.7600 377.0000 1.0000
42.7700 359.0000 1.0000
42.7800 348.0000 1.0000
42.7900 338.0000 1.0000
42.8000 370.0000 1.0000
42.8100 347.0000 1.0000
42.8200 357.0000 1.0000
42.8300 353.0000 1.0000
42.8400 326.0000 1.0000
42.8500 366.0000 1.0000
42.8600 342.0000 1.0000
42.8700 346.0000 1.0000
42.8800 356.0000 1.0000
42.8900 346.0000 1.0000
42.9000 340.0000 1.0000
42.9100 385.0000 1.0000
42.9200 346.0000 1.0000
42.9300 330.0000 1.0000
42.9400 342.0000 1.0000
42.9500 327.0000 1.0000
42.9600 347.0000 1.0000
42.9700 336.0000 1.0000
42.9800 329.0000 1.0000
42.9900 361.0000 1.0000
43.0000 354.0000 1.0000
43.0100 352.0000 1.0000
43.0200 374.0000 1.0000
43.0300 351.0000 1.0000
43.0400 388.0000 1.0000
43.0500 358.0000 1.0000
43.0600 330.0000 1.0000
43.0700 333.0000 1.0000
43.0800 346.0000 1.0000
43.0900 359.0000 1.0000
43.1000 326.0000 1.0000
43.1100 334.0000 1.0000
43.1200 384.0000 1.0000
43.1300 358.0000 1.0000
43.1400 329.0000 1.0000
43.1500 371.0000 1.0000
43.1600 328.0000 1.0000
43.1700 357.0000 1.0000
43.1800 355.0000 1.0000
43.1900 350.0000 1.0000
43.2000 336.0000 1.0000
43.2100 340.0000 1.0000
43.2200 343.0000 1.0000
43.2300 376.0000 1.0000
43.2400 377.0000 1.0000
43.2500 351.0000 1.0000
43.2600 369.0000 1.0000
43.2700 401.0000 1.0000
43.2800 353.0000 1.0000
43.2900 363.0000 1.0000
43.3000 332.0000 1.0000
43.3100 322.0000 1.0000
43.3200 370.0000 1.0000
43.3300 316.0000 1.0000
43.3400 347.0000 1.0000
43.3500 357.0000 1.0000
43.3600 365.0000 1.0000
43.3700 337.0000 1.0000
43.3800 351.0000 1.0000
43.3900 361.0000 1.0000
43.4000 358.0000 1.0000
43.4100 347.0000 1.0000
43.4200 353.0000 1.0000
43.4300 358.0000 1.0000
43.4400 337.0000 1.0000
43.4500 346.0000 1.0000
43.4600 342.0000 1.0000
43.4700 360.0000 1.0000
43.4800 370.0000 1.0000
43.4900 362.0000 1.0000
43.5000 359.0000 1.0000
43.5100 335.0000 1.0000
43.5200 343.0000 1.0000
43.5300 331.0000 1.0000
43.5400 324.0000 1.0000
43.5500 348.0000 1.0000
43.5600 347.0000 1.0000
43.5700 362.0000 1.0000
43.5800 347.0000 1.0000
43.5900 363.0000 1.0000
43.6000 351.0000 1.0000
43.6100 364.0000 1.0000
43.6200 368.0000 1.0000
43.6300 361.0000 1.0000
43.6400 349.0000 1.0000
43.6500 343.0000 1.0000
43.6600 349.0000 1.0000
43.6700 364.0000 1.0000
43.6800 328.0000 1.0000
43.6900 346.0000 1.0000
43.7000 323.0000 1.0000
43.7100 331.0000 1.0000
43.7200 338.0000 1.0000
43.7300 348.0000 1.0000
43.7400 318.0000 1.0000
43.7500 360.0000 1.0000
43.7600 337.0000 1.0000
43.7700 320.0000 1.0000
43.7800 330.0000 1.0000
43.7900 345.0000 1.0000
43.8000 363.0000 1.0000
43.8100 339.0000 1.0000
43.8200 350.0000 1.0000
43.8300 354.0000 1.0000
43.8400 347.0000 1.0000
43.8500 354.0000 1.0000
43.8600 312.0000 1.0000
43.8700 317.0000 1.0000
43.8800 353.0000 1.0000
43.8900 335.0000 1.0000
43.9000 354.0000 1.0000
43.9100 363.0000 1.0000
43.9200 340.0000 1.0000
43.9300 342.0000 1.0000
43.9400 351.0000 1.0000
43.9500 335.0000 1.0000
43.9600 338.0000 1.0000
43.9700 360.0000 1.0000
43.9800 334.0000 1.0000
43.9900 332.0000 1.0000
44.0000 348.0000 1.0000
44.0100 368.0000 1.0000
44.0200 338.0000 1.0000
44.0300 351.0000 1.0000
44.0400 349.0000 1.0000
44.0500 361.0000 1.0000
44.0600 367.0000 1.0000
44.0700 324.0000 1.0000
44.0800 351.0000 1.0000
44.0900 325.0000 1.0000
44.1000 326.0000 1.0000
44.1100 337.0000 1.0000
44.1200 309.0000 1.0000
44.1300 360.0000 1.0000
44.1400 334.0000 1.0000
44.1500 347.0000 1.0000
44.1600 329.0000 1.0000
44.1700 367.0000 1.0000
44.1800 336.0000 1.0000
44.1900 337.0000 1.0000
44.2000 335.0000 1.0000
44.2100 344.0000 1.0000
44.2200 347.0000 1.0000
44.2300 359.0000 1.0000
44.2400 333.0000 1.0000
44.2500 292.0000 1.0000
44.2600 330.0000 1.0000
44.2700 360.0000 1.0000
44.2800 332.0000 1.0000
44.2900 353.0000 1.0000
44.3000 339.0000 1.0000
44.3100 343.0000 1.0000
44.3200 361.0000 1.0000
44.3300 334.0000 1.0000
44.3400 341.0000 1.0000
44.3500 305.0000 1.0000
44.3600 362.0000 1.0000
44.3700 311.0000 1.0000
44.3800 339.0000 1.0000
44.3900 348.0000 1.0000
44.4000 321.0000 1.0000
44.4100 326.0000 1.0000
44.4200 317.0000 1.0000
44.4300 356.0000 1.0000
44.4400 345.0000 1.0000
44.4500 336.0000 1.0000
44.4600 358.0000 1.0000
44.4700 359.0000 1.0000
44.4800 320.0000 1.0000
44.4900 336.0000 1.0000
44.5000 345.0000 1.0000
44.5100 314.0000 1.0000
44.5200 326.0000 1.0000
44.5300 323.0000 1.0000
44.5400 344.0000 1.0000
44.5500 345.0000 1.0000
44.5600 344.0000 1.0000
44.5700 339.0000 1.0000
44.5800 327.0000 1.0000
44.5900 340.0000 1.0000
44.6000 325.0000 1.0000
44.6100 314.0000 1.0000
44.6200 346.0000 1.0000
44.6300 305.0000 1.0000
44.6400 318.0000 1.0000
44.6500 314.0000 1.0000
44.6600 342.0000 1.0000
44.6700 365.0000 1.0000
44.6800 362.0000 1.0000
44.6900 358.0000 1.0000
44.7000 334.0000 1.0000
44.7100 317.0000 1.0000
44.7200 354.0000 1.0000
44.7300 343.0000 1.0000
44.7400 348.0000 1.0000
44.7500 313.0000 1.0000
44.7600 306.0000 1.0000
44.7700 334.0000 1.0000
44.7800 353.0000 1.0000
44.7900 344.0000 1.0000
44.8000 331.0000 1.0000
44.8100 283.0000 1.0000
44.8200 331.0000 1.0000
44.8300 327.0000 1.0000
44.8400 339.0000 1.0000
44.8500 314.0000 1.0000
44.8600 320.0000 1.0000
44.8700 339.0000 1.0000
44.8800 324.0000 1.0000
44.8900 334.0000 1.0000
44.9000 346.0000 1.0000
44.9100 322.0000 1.0000
44.9200 359.0000 1.0000
44.9300 327.0000 1.0000
44.9400 319.0000 1.0000
44.9500 371.0000 1.0000
44.9600 339.0000 1.0000
44.9700 348.0000 1.0000
44.9800 335.0000 1.0000
44.9900 335.0000 1.0000
45.0000 345.0000 1.0000
45.0100 302.0000 1.0000
45.0200 333.0000 1.0000
45.0300 345.0000 1.0000
45.0400 325.0000 1.0000
45.0500 344.0000 1.0000
45.0600 317.0000 1.0000
45.0700 324.0000 1.0000
45.0800 325.0000 1.0000
45.0900 315.0000 1.0000
45.1000 301.0000 1.0000
45.1100 309.0000 1.0000
45.1200 320.0000 1.0000
45.1300 324.0000 1.0000
45.1400 352.0000 1.0000
45.1500 358.0000 1.0000
45.1600 327.0000 1.0000
45.1700 332.0000 1.0000
45.1800 312.0000 1.0000
45.1900 343.0000 1.0000
45.2000 346.0000 1.0000
45.2100 337.0000 1.0000
45.2200 319.0000 1.0000
45.2300 297.0000 1.0000
45.2400 340.0000 1.0000
45.2500 319.0000 1.0000
45.2600 324.0000 1.0000
45.2700 326.0000 1.0000
45.2800 322.0000 1.0000
45.2900 338.0000 1.0000
45.3000 325.0000 1.0000
45.3100 322.0000 1.0000
45.3200 321.0000 1.0000
45.3300 327.0000 1.0000
45.3400 322.0000 1.0000
45.3500 321.0000 1.0000
45.3600 304.0000 1.0000
45.3700 336.0000 1.0000
45.3800 302.0000 1.0000
45.3900 336.0000 1.0000
45.4000 326.0000 1.0000
45.4100 345.0000 1.0000
45.4200 333.0000 1.0000
45.4300 340.0000 1.0000
45.4400 328.0000 1.0000
45.4500 346.0000 1.0000
45.4600 290.0000 1.0000
45.4700 339.0000 1.0000
45.4800 366.0000 1.0000
45.4900 320.0000 1.0000
45.5000 356.0000 1.0000
45.5100 330.0000 1.0000
45.5200 335.0000 1.0000
45.5300 335.0000 1.0000
45.5400 321.0000 1.0000
45.5500 327.0000 1.0000
45.5600 329.0000 1.0000
45.5700 334.0000 1.0000
45.5800 302.0000 1.0000
45.5900 327.0000 1.0000
45.6000 296.0000 1.0000
45.6100 323.0000 1.0000
45.6200 311.0000 1.0000
45.6300 323.0000 1.0000
45.6400 321.0000 1.0000
45.6500 328.0000 1.0000
45.6600 333.0000 1.0000
45.6700 324.0000 1.0000
45.6800 332.0000 1.0000
45.6900 362.0000 1.0000
45.7000 290.0000 1.0000
45.7100 314.0000 1.0000
45.7200 313.0000 1.0000
45.7300 316.0000 1.0000
45.7400 338.0000 1.0000
45.7500 315.0000 1.0000
45.7600 341.0000 1.0000
45.7700 329.0000 1.0000
45.7800 300.0000 1.0000
45.7900 323.0000 1.0000
45.8000 320.0000 1.0000
45.8100 306.0000 1.0000
45.8200 289.0000 1.0000
45.8300 333.0000 1.0000
45.8400 304.0000 1.0000
45.8500 328.0000 1.0000
45.8600 326.0000 1.0000
45.8700 325.0000 1.0000
45.8800 299.0000 1.0000
45.8900 309.0000 1.0000
45.9000 326.0000 1.0000
45.9100 313.0000 1.0000
45.9200 344.0000 1.0000
45.9300 317.0000 1.0000
45.9400 314.0000 1.0000
45.9500 326.0000 1.0000
45.9600 328.0000 1.0000
45.9700 352.0000 1.0000
45.9800 320.0000 1.0000
45.9900 326.0000 1.0000
46.0000 341.0000 1.0000
46.0100 354.0000 1.0000
46.0200 325.0000 1.0000
46.0300 298.0000 1.0000
46.0400 339.0000 1.0000
46.0500 337.0000 1.0000
46.0600 334.0000 1.0000
46.0700 310.0000 1.0000
46.0800 313.0000 1.0000
46.0900 364.0000 1.0000
46.1000 367.0000 1.0000
46.1100 358.0000 1.0000
46.1200 327.0000 1.0000
46.1300 361.0000 1.0000
46.1400 336.0000 1.0000
46.1500 309.0000 1.0000
46.1600 318.0000 1.0000
46.1700 318.0000 1.0000
46.1800 344.0000 1.0000
46.1900 338.0000 1.0000
46.2000 331.0000 1.0000
46.2100 321.0000 1.0000
46.2200 351.0000 1.0000
46.2300 358.0000 1.0000
46.2400 301.0000 1.0000
46.2500 347.0000 1.0000
46.2600 323.0000 1.0000
46.2700 318.0000 1.0000
46.2800 340.0000 1.0000
46.2900 313.0000 1.0000
46.3000 353.0000 1.0000
46.3100 345.0000 1.0000
46.3200 324.0000 1.0000
46.3300 324.0000 1.0000
46.3400 300.0000 1.0000
46.3500 325.0000 1.0000
46.3600 297.0000 1.0000
46.3700 316.0000 1.0000
46.3800 320.0000 1.0000
46.3900 296.0000 1.0000
46.4000 314.0000 1.0000
46.4100 315.0000 1.0000
46.4200 298.0000 1.0000
46.4300 280.0000 1.0000
46.4400 306.0000 1.0000
46.4500 324.0000 1.0000
46.4600 319.0000 1.0000
46.4700 304.0000 1.0000
46.4800 326.0000 1.0000
46.4900 284.0000 1.0000
46.5000 289.0000 1.0000
46.5100 308.0000 1.0000
46.5200 323.0000 1.0000
46.5300 334.0000 1.0000
46.5400 317.0000 1.0000
46.5500 311.0000 1.0000
46.5600 322.0000 1.0000
46.5700 308.0000 1.0000
46.5800 279.0000 1.0000
46.5900 332.0000 1.0000
46.6000 327.0000 1.0000
46.6100 296.0000 1.0000
46.6200 305.0000 1.0000
46.6300 320.0000 1.0000
46.6400 320.0000 1.0000
46.6500 328.0000 1.0000
46.6600 335.0000 1.0000
46.6700 343.0000 1.0000
46.6800 288.0000 1.0000
46.6900 280.0000 1.0000
46.7000 323.0000 1.0000
46.7100 316.0000 1.0000
46.7200 318.0000 1.0000
46.7300 321.0000 1.0000
46.7400 307.0000 1.0000
46.7500 331.0000 1.0000
46.7600 315.0000 1.0000
46.7700 326.0000 1.0000
46.7800 325.0000 1.0000
46.7900 300.0000 1.0000
46.8000 297.0000 1.0000
46.8100 279.0000 1.0000
46.8200 304.0000 1.0000
46.8300 314.0000 1.0000
46.8400 305.0000 1.0000
46.8500 312.0000 1.0000
46.8600 326.0000 1.0000
46.8700 304.0000 1.0000
46.8800 310.0000 1.0000
46.8900 327.0000 1.0000
46.9000 310.0000 1.0000
46.9100 302.0000 1.0000
46.9200 307.0000 1.0000
46.9300 304.0000 1.0000
46.9400 324.0000 1.0000
46.9500 309.0000 1.0000
46.9600 307.0000 1.0000
46.9700 318.0000 1.0000
46.9800 326.0000 1.0000
46.9900 307.0000 1.0000
47.0000 296.0000 1.0000
47.0100 320.0000 1.0000
47.0200 329.0000 1.0000
47.0300 308.0000 1.0000
47.0400 323.0000 1.0000
47.0500 315.0000 1.0000
47.0600 313.0000 1.0000
47.0700 317.0000 1.0000
47.0800 335.0000 1.0000
47.0900 308.0000 1.0000
47.1000 329.0000 1.0000
47.1100 343.0000 1.0000
47.1200 315.0000 1.0000
47.1300 317.0000 1.0000
47.1400 309.0000 1.0000
47.1500 309.0000 1.0000
47.1600 313.0000 1.0000
47.1700 338.0000 1.0000
47.1800 306.0000 1.0000
47.1900 316.0000 1.0000
47.2000 298.0000 1.0000
47.2100 302.0000 1.0000
47.2200 320.0000 1.0000
47.2300 310.0000 1.0000
47.2400 331.0000 1.0000
47.2500 327.0000 1.0000
47.2600 329.0000 1.0000
47.2700 304.0000 1.0000
47.2800 292.0000 1.0000
47.2900 280.0000 1.0000
47.3000 308.0000 1.0000
47.3100 303.0000 1.0000
47.3200 304.0000 1.0000
47.3300 322.0000 1.0000
47.3400 310.0000 1.0000
47.3500 327.0000 1.0000
47.3600 304.0000 1.0000
47.3700 325.0000 1.0000
47.3800 293.0000 1.0000
47.3900 315.0000 1.0000
47.4000 314.0000 1.0000
47.4100 310.0000 1.0000
47.4200 309.0000 1.0000
47.4300 326.0000 1.0000
47.4400 291.0000 1.0000
47.4500 335.0000 1.0000
47.4600 298.0000 1.0000
47.4700 306.0000 1.0000
47.4800 284.0000 1.0000
47.4900 305.0000 1.0000
47.5000 308.0000 1.0000
47.5100 298.0000 1.0000
47.5200 308.0000 1.0000
47.5300 328.0000 1.0000
47.5400 333.0000 1.0000
47.5500 331.0000 1.0000
47.5600 332.0000 1.0000
47.5700 297.0000 1.0000
47.5800 331.0000 1.0000
47.5900 333.0000 1.0000
47.6000 311.0000 1.0000
47.6100 327.0000 1.0000
47.6200 310.0000 1.0000
47.6300 314.0000 1.0000
47.6400 327.0000 1.0000
47.6500 286.0000 1.0000
47.6600 287.0000 1.0000
47.6700 304.0000 1.0000
47.6800 317.0000 1.0000
47.6900 299.0000 1.0000
47.7000 321.0000 1.0000
47.7100 320.0000 1.0000
47.7200 333.0000 1.0000
47.7300 317.0000 1.0000
47.7400 315.0000 1.0000
47.7500 303.0000 1.0000
47.7600 297.0000 1.0000
47.7700 297.0000 1.0000
47.7800 307.0000 1.0000
47.7900 312.0000 1.0000
47.8000 292.0000 1.0000
47.8100 306.0000 1.0000
47.8200 312.0000 1.0000
47.8300 299.0000 1.0000
47.8400 317.0000 1.0000
47.8500 333.0000 1.0000
47.8600 324.0000 1.0000
47.8700 296.0000 1.0000
47.8800 311.0000 1.0000
47.8900 314.0000 1.0000
47.9000 306.0000 1.0000
47.9100 298.0000 1.0000
47.9200 310.0000 1.0000
47.9300 311.0000 1.0000
47.9400 313.0000 1.0000
47.9500 305.0000 1.0000
47.9600 295.0000 1.0000
47.9700 315.0000 1.0000
47.9800 302.0000 1.0000
47.9900 294.0000 1.0000
48.0000 310.0000 1.0000
48.0100 314.0000 1.0000
48.0200 301.0000 1.0000
48.0300 271.0000 1.0000
48.0400 290.0000 1.0000
48.0500 265.0000 1.0000
48.0600 317.0000 1.0000
48.0700 321.0000 1.0000
48.0800 307.0000 1.0000
48.0900 309.0000 1.0000
48.1000 286.0000 1.0000
48.1100 311.0000 1.0000
48.1200 299.0000 1.0000
48.1300 305.0000 1.0000
48.1400 310.0000 1.0000
48.1500 319.0000 1.0000
48.1600 303.0000 1.0000
48.1700 276.0000 1.0000
48.1800 286.0000 1.0000
48.1900 291.0000 1.0000
48.2000 277.0000 1.0000
48.2100 282.0000 1.0000
48.2200 297.0000 1.0000
48.2300 300.0000 1.0000
48.2400 313.0000 1.0000
48.2500 299.0000 1.0000
48.2600 298.0000 1.0000
48.2700 297.0000 1.0000
48.2800 295.0000 1.0000
48.2900 309.0000 1.0000
48.3000 318.0000 1.0000
48.3100 321.0000 1.0000
48.3200 324.0000 1.0000
48.3300 296.0000 1.0000
48.3400 290.0000 1.0000
48.3500 303.0000 1.0000
48.3600 290.0000 1.0000
48.3700 307.0000 1.0000
48.3800 287.0000 1.0000
48.3900 315.0000 1.0000
48.4000 313.0000 1.0000
48.4100 281.0000 1.0000
48.4200 285.0000 1.0000
48.4300 283.0000 1.0000
48.4400 284.0000 1.0000
48.4500 317.0000 1.0000
48.4600 295.0000 1.0000
48.4700 294.0000 1.0000
48.4800 298.0000 1.0000
48.4900 302.0000 1.0000
48.5000 300.0000 1.0000
48.5100 316.0000 1.0000
48.5200 317.0000 1.0000
48.5300 306.0000 1.0000
48.5400 297.0000 1.0000
48.5500 305.0000 1.0000
48.5600 305.0000 1.0000
48.5700 279.0000 1.0000
48.5800 284.0000 1.0000
48.5900 325.0000 1.0000
48.6000 324.0000 1.0000
48.6100 317.0000 1.0000
48.6200 316.0000 1.0000
48.6300 311.0000 1.0000
48.6400 314.0000 1.0000
48.6500 302.0000 1.0000
48.6600 323.0000 1.0000
48.6700 292.0000 1.0000
48.6800 304.0000 1.0000
48.6900 314.0000 1.0000
48.7000 296.0000 1.0000
48.7100 343.0000 1.0000
48.7200 305.0000 1.0000
48.7300 286.0000 1.0000
48.7400 313.0000 1.0000
48.7500 288.0000 1.0000
48.7600 307.0000 1.0000
48.7700 306.0000 1.0000
48.7800 293.0000 1.0000
48.7900 316.0000 1.0000
48.8000 308.0000 1.0000
48.8100 307.0000 1.0000
48.8200 289.0000 1.0000
48.8300 290.0000 1.0000
48.8400 283.0000 1.0000
48.8500 293.0000 1.0000
48.8600 320.0000 1.0000
48.8700 317.0000 1.0000
48.8800 294.0000 1.0000
48.8900 274.0000 1.0000
48.9000 285.0000 1.0000
48.9100 268.0000 1.0000
48.9200 305.0000 1.0000
48.9300 297.0000 1.0000
48.9400 277.0000 1.0000
48.9500 310.0000 1.0000
48.9600 274.0000 1.0000
48.9700 310.0000 1.0000
48.9800 327.0000 1.0000
48.9900 309.0000 1.0000
49.0000 316.0000 1.0000
49.0100 301.0000 1.0000
49.0200 281.0000 1.0000
49.0300 306.0000 1.0000
49.0400 297.0000 1.0000
49.0500 303.0000 1.0000
49.0600 296.0000 1.0000
49.0700 296.0000 1.0000
49.0800 298.0000 1.0000
49.0900 283.0000 1.0000
49.1000 322.0000 1.0000
49.1100 315.0000 1.0000
49.1200 285.0000 1.0000
49.1300 268.0000 1.0000
49.1400 263.0000 1.0000
49.1500 309.0000 1.0000
49.1600 297.0000 1.0000
49.1700 302.0000 1.0000
49.1800 312.0000 1.0000
49.1900 298.0000 1.0000
49.2000 297.0000 1.0000
49.2100 344.0000 1.0000
49.2200 303.0000 1.0000
49.2300 285.0000 1.0000
49.2400 302.0000 1.0000
49.2500 312.0000 1.0000
49.2600 306.0000 1.0000
49.2700 309.0000 1.0000
49.2800 293.0000 1.0000
49.2900 322.0000 1.0000
49.3000 331.0000 1.0000
49.3100 330.0000 1.0000
49.3200 311.0000 1.0000
49.3300 311.0000 1.0000
49.3400 335.0000 1.0000
49.3500 302.0000 1.0000
49.3600 321.0000 1.0000
49.3700 318.0000 1.0000
49.3800 321.0000 1.0000
49.3900 330.0000 1.0000
49.4000 319.0000 1.0000
49.4100 330.0000 1.0000
49.4200 336.0000 1.0000
49.4300 343.0000 1.0000
49.4400 292.0000 1.0000
49.4500 298.0000 1.0000
49.4600 326.0000 1.0000
49.4700 310.0000 1.0000
49.4800 322.0000 1.0000
49.4900 331.0000 1.0000
49.5000 341.0000 1.0000
49.5100 336.0000 1.0000
49.5200 308.0000 1.0000
49.5300 302.0000 1.0000
49.5400 320.0000 1.0000
49.5500 307.0000 1.0000
49.5600 306.0000 1.0000
49.5700 296.0000 1.0000
49.5800 302.0000 1.0000
49.5900 308.0000 1.0000
49.6000 305.0000 1.0000
49.6100 294.0000 1.0000
49.6200 313.0000 1.0000
49.6300 314.0000 1.0000
49.6400 328.0000 1.0000
49.6500 316.0000 1.0000
49.6600 325.0000 1.0000
49.6700 335.0000 1.0000
49.6800 277.0000 1.0000
49.6900 308.0000 1.0000
49.7000 297.0000 1.0000
49.7100 302.0000 1.0000
49.7200 317.0000 1.0000
49.7300 299.0000 1.0000
49.7400 315.0000 1.0000
49.7500 331.0000 1.0000
49.7600 297.0000 1.0000
49.7700 329.0000 1.0000
49.7800 331.0000 1.0000
49.7900 307.0000 1.0000
49.8000 336.0000 1.0000
49.8100 307.0000 1.0000
49.8200 320.0000 1.0000
49.8300 319.0000 1.0000
49.8400 293.0000 1.0000
49.8500 285.0000 1.0000
49.8600 275.0000 1.0000
49.8700 305.0000 1.0000
49.8800 305.0000 1.0000
49.8900 323.0000 1.0000
49.9000 328.0000 1.0000
49.9100 306.0000 1.0000
49.9200 328.0000 1.0000
49.9300 311.0000 1.0000
49.9400 327.0000 1.0000
49.9500 345.0000 1.0000
49.9600 330.0000 1.0000
49.9700 300.0000 1.0000
49.9800 315.0000 1.0000
49.9900 321.0000 1.0000
50.0000 299.0000 1.0000
50.0100 287.0000 1.0000
50.0200 294.0000 1.0000
50.0300 298.0000 1.0000
50.0400 285.0000 1.0000
50.0500 317.0000 1.0000
50.0600 285.0000 1.0000
50.0700 309.0000 1.0000
50.0800 307.0000 1.0000
50.0900 311.0000 1.0000
50.1000 290.0000 1.0000
50.1100 293.0000 1.0000
50.1200 292.0000 1.0000
50.1300 293.0000 1.0000
50.1400 309.0000 1.0000
50.1500 309.0000 1.0000
50.1600 307.0000 1.0000
50.1700 302.0000 1.0000
50.1800 294.0000 1.0000
50.1900 283.0000 1.0000
50.2000 307.0000 1.0000
50.2100 299.0000 1.0000
50.2200 303.0000 1.0000
50.2300 304.0000 1.0000
50.2400 297.0000 1.0000
50.2500 292.0000 1.0000
50.2600 296.0000 1.0000
50.2700 311.0000 1.0000
50.2800 331.0000 1.0000
50.2900 305.0000 1.0000
50.3000 301.0000 1.0000
50.3100 293.0000 1.0000
50.3200 303.0000 1.0000
50.3300 289.0000 1.0000
50.3400 322.0000 1.0000
50.3500 329.0000 1.0000
50.3600 292.0000 1.0000
50.3700 287.0000 1.0000
50.3800 295.0000 1.0000
50.3900 324.0000 1.0000
50.4000 309.0000 1.0000
50.4100 325.0000 1.0000
50.4200 296.0000 1.0000
50.4300 293.0000 1.0000
50.4400 314.0000 1.0000
50.4500 316.0000 1.0000
50.4600 330.0000 1.0000
50.4700 300.0000 1.0000
50.4800 289.0000 1.0000
50.4900 321.0000 1.0000
50.5000 313.0000 1.0000
50.5100 315.0000 1.0000
50.5200 298.0000 1.0000
50.5300 303.0000 1.0000
50.5400 303.0000 1.0000
50.5500 278.0000 1.0000
50.5600 311.0000 1.0000
50.5700 302.0000 1.0000
50.5800 306.0000 1.0000
50.5900 328.0000 1.0000
50.6000 319.0000 1.0000
50.6100 279.0000 1.0000
50.6200 297.0000 1.0000
50.6300 326.0000 1.0000
50.6400 309.0000 1.0000
50.6500 313.0000 1.0000
50.6600 313.0000 1.0000
50.6700 334.0000 1.0000
50.6800 296.0000 1.0000
50.6900 321.0000 1.0000
50.7000 349.0000 1.0000
50.7100 314.0000 1.0000
50.7200 331.0000 1.0000
50.7300 327.0000 1.0000
50.7400 296.0000 1.0000
50.7500 316.0000 1.0000
50.7600 338.0000 1.0000
50.7700 326.0000 1.0000
50.7800 323.0000 1.0000
50.7900 301.0000 1.0000
50.8000 324.0000 1.0000
50.8100 309.0000 1.0000
50.8200 302.0000 1.0000
50.8300 323.0000 1.0000
50.8400 295.0000 1.0000
50.8500 303.0000 1.0000
50.8600 286.0000 1.0000
50.8700 298.0000 1.0000
50.8800 316.0000 1.0000
50.8900 337.0000 1.0000
50.9000 318.0000 1.0000
50.9100 309.0000 1.0000
50.9200 339.0000 1.0000
50.9300 296.0000 1.0000
50.9400 321.0000 1.0000
50.9500 313.0000 1.0000
50.9600 318.0000 1.0000
50.9700 360.0000 1.0000
50.9800 329.0000 1.0000
50.9900 321.0000 1.0000
51.0000 334.0000 1.0000
51.0100 331.0000 1.0000
51.0200 339.0000 1.0000
51.0300 333.0000 1.0000
51.0400 318.0000 1.0000
51.0500 355.0000 1.0000
51.0600 376.0000 1.0000
51.0700 371.0000 1.0000
51.0800 362.0000 1.0000
51.0900 385.0000 1.0000
51.1000 359.0000 1.0000
51.1100 395.0000 1.0000
51.1200 360.0000 1.0000
51.1300 393.0000 1.0000
51.1400 377.0000 1.0000
51.1500 387.0000 1.0000
51.1600 413.0000 1.0000
51.1700 410.0000 1.0000
51.1800 447.0000 1.0000
51.1900 477.0000 1.0000
51.2000 470.0000 1.0000
51.2100 510.0000 1.0000
51.2200 536.0000 1.0000
51.2300 514.0000 1.0000
51.2400 530.0000 1.0000
51.2500 501.0000 1.0000
51.2600 578.0000 1.0000
51.2700 604.0000 1.0000
51.2800 627.0000 1.0000
51.2900 651.0000 1.0000
51.3000 685.0000 1.0000
51.3100 772.0000 1.0000
51.3200 810.0000 1.0000
51.3300 867.0000 1.0000
51.3400 987.0000 1.0000
51.3500 1034.0000 1.0000
51.3600 1094.0000 1.0000
51.3700 1148.0000 1.0000
51.3800 1311.0000 1.0000
51.3900 1410.0000 1.0000
51.4000 1481.0000 1.0000
51.4100 1556.0000 1.0000
51.4200 1710.0000 1.0000
51.4300 1763.0000 1.0000
51.4400 1892.0000 1.0000
51.4500 1947.0000 1.0000
51.4600 1997.0000 1.0000
51.4700 2027.0000 1.0000
51.4800 2036.0000 1.0000
51.4900 1962.0000 1.0000
51.5000 1983.0000 1.0000
51.5100 1950.0000 1.0000
51.5200 1859.0000 1.0000
51.5300 1871.0000 1.0000
51.5400 1762.0000 1.0000
51.5500 1736.0000 1.0000
51.5600 1722.0000 1.0000
51.5700 1686.0000 1.0000
51.5800 1646.0000 1.0000
51.5900 1580.0000 1.0000
51.6000 1566.0000 1.0000
51.6100 1517.0000 1.0000
51.6200 1441.0000 1.0000
51.6300 1382.0000 1.0000
51.6400 1314.0000 1.0000
51.6500 1174.0000 1.0000
51.6600 1088.0000 1.0000
51.6700 1052.0000 1.0000
51.6800 999.0000 1.0000
51.6900 896.0000 1.0000
51.7000 822.0000 1.0000
51.7100 825.0000 1.0000
51.7200 768.0000 1.0000
51.7300 713.0000 1.0000
51.7400 683.0000 1.0000
51.7500 681.0000 1.0000
51.7600 648.0000 1.0000
51.7700 652.0000 1.0000
51.7800 587.0000 1.0000
51.7900 555.0000 1.0000
51.8000 532.0000 1.0000
51.8100 555.0000 1.0000
51.8200 518.0000 1.0000
51.8300 492.0000 1.0000
51.8400 468.0000 1.0000
51.8500 436.0000 1.0000
51.8600 413.0000 1.0000
51.8700 440.0000 1.0000
51.8800 390.0000 1.0000
51.8900 416.0000 1.0000
51.9000 386.0000 1.0000
51.9100 400.0000 1.0000
51.9200 368.0000 1.0000
51.9300 374.0000 1.0000
51.9400 358.0000 1.0000
51.9500 352.0000 1.0000
51.9600 366.0000 1.0000
51.9700 358.0000 1.0000
51.9800 364.0000 1.0000
51.9900 352.0000 1.0000
52.0000 338.0000 1.0000
52.0100 375.0000 1.0000
52.0200 346.0000 1.0000
52.0300 341.0000 1.0000
52.0400 351.0000 1.0000
52.0500 323.0000 1.0000
52.0600 314.0000 1.0000
52.0700 336.0000 1.0000
52.0800 348.0000 1.0000
52.0900 324.0000 1.0000
52.1000 326.0000 1.0000
52.1100 324.0000 1.0000
52.1200 308.0000 1.0000
52.1300 342.0000 1.0000
52.1400 308.0000 1.0000
52.1500 340.0000 1.0000
52.1600 340.0000 1.0000
52.1700 352.0000 1.0000
52.1800 336.0000 1.0000
52.1900 315.0000 1.0000
52.2000 315.0000 1.0000
52.2100 313.0000 1.0000
52.2200 327.0000 1.0000
52.2300 337.0000 1.0000
52.2400 328.0000 1.0000
52.2500 338.0000 1.0000
52.2600 325.0000 1.0000
52.2700 312.0000 1.0000
52.2800 350.0000 1.0000
52.2900 335.0000 1.0000
52.3000 315.0000 1.0000
52.3100 328.0000 1.0000
52.3200 299.0000 1.0000
52.3300 323.0000 1.0000
52.3400 303.0000 1.0000
52.3500 330.0000 1.0000
52.3600 327.0000 1.0000
52.3700 320.0000 1.0000
52.3800 314.0000 1.0000
52.3900 317.0000 1.0000
52.4000 313.0000 1.0000
52.4100 316.0000 1.0000
52.4200 303.0000 1.0000
52.4300 277.0000 1.0000
52.4400 305.0000 1.0000
52.4500 282.0000 1.0000
52.4600 291.0000 1.0000
52.4700 286.0000 1.0000
52.4800 284.0000 1.0000
52.4900 290.0000 1.0000
52.5000 287.0000 1.0000
52.5100 266.0000 1.0000
52.5200 327.0000 1.0000
52.5300 329.0000 1.0000
52.5400 320.0000 1.0000
52.5500 314.0000 1.0000
52.5600 295.0000 1.0000
52.5700 290.0000 1.0000
52.5800 288.0000 1.0000
52.5900 325.0000 1.0000
52.6000 311.0000 1.0000
52.6100 292.0000 1.0000
52.6200 318.0000 1.0000
52.6300 306.0000 1.0000
52.6400 286.0000 1.0000
52.6500 294.0000 1.0000
52.6600 297.0000 1.0000
52.6700 317.0000 1.0000
52.6800 298.0000 1.0000
52.6900 298.0000 1.0000
52.7000 284.0000 1.0000
52.7100 296.0000 1.0000
52.7200 287.0000 1.0000
52.7300 329.0000 1.0000
52.7400 295.0000 1.0000
52.7500 293.0000 1.0000
52.7600 312.0000 1.0000
52.7700 300.0000 1.0000
52.7800 280.0000 1.0000
52.7900 304.0000 1.0000
52.8000 314.0000 1.0000
52.8100 300.0000 1.0000
52.8200 292.0000 1.0000
52.8300 284.0000 1.0000
52.8400 302.0000 1.0000
52.8500 300.0000 1.0000
52.8600 286.0000 1.0000
52.8700 316.0000 1.0000
52.8800 307.0000 1.0000
52.8900 295.0000 1.0000
52.9000 266.0000 1.0000
52.9100 325.0000 1.0000
52.9200 288.0000 1.0000
52.9300 282.0000 1.0000
52.9400 272.0000 1.0000
52.9500 303.0000 1.0000
52.9600 300.0000 1.0000
52.9700 312.0000 1.0000
52.9800 280.0000 1.0000
52.9900 271.0000 1.0000
53.0000 269.0000 1.0000
53.0100 288.0000 1.0000
53.0200 274.0000 1.0000
53.0300 282.0000 1.0000
53.0400 270.0000 1.0000
53.0500 300.0000 1.0000
53.0600 317.0000 1.0000
53.0700 273.0000 1.0000
53.0800 287.0000 1.0000
53.0900 308.0000 1.0000
53.1000 298.0000 1.0000
53.1100 287.0000 1.0000
53.1200 302.0000 1.0000
53.1300 297.0000 1.0000
53.1400 301.0000 1.0000
53.1500 316.0000 1.0000
53.1600 304.0000 1.0000
53.1700 284.0000 1.0000
53.1800 286.0000 1.0000
53.1900 287.0000 1.0000
53.2000 294.0000 1.0000
53.2100 269.0000 1.0000
53.2200 297.0000 1.0000
53.2300 292.0000 1.0000
53.2400 294.0000 1.0000
53.2500 262.0000 1.0000
53.2600 305.0000 1.0000
53.2700 314.0000 1.0000
53.2800 298.0000 1.0000
53.2900 281.0000 1.0000
53.3000 273.0000 1.0000
53.3100 291.0000 1.0000
53.3200 294.0000 1.0000
53.3300 296.0000 1.0000
53.3400 304.0000 1.0000
53.3500 292.0000 1.0000
53.3600 286.0000 1.0000
53.3700 314.0000 1.0000
53.3800 298.0000 1.0000
53.3900 292.0000 1.0000
53.4000 277.0000 1.0000
53.4100 307.0000 1.0000
53.4200 301.0000 1.0000
53.4300 331.0000 1.0000
53.4400 301.0000 1.0000
53.4500 274.0000 1.0000
53.4600 289.0000 1.0000
53.4700 282.0000 1.0000
53.4800 289.0000 1.0000
53.4900 323.0000 1.0000
53.5000 291.0000 1.0000
53.5100 303.0000 1.0000
53.5200 304.0000 1.0000
53.5300 296.0000 1.0000
53.5400 290.0000 1.0000
53.5500 297.0000 1.0000
53.5600 292.0000 1.0000
53.5700 257.0000 1.0000
53.5800 303.0000 1.0000
53.5900 307.0000 1.0000
53.6000 296.0000 1.0000
53.6100 276.0000 1.0000
53.6200 312.0000 1.0000
53.6300 321.0000 1.0000
53.6400 315.0000 1.0000
53.6500 294.0000 1.0000
53.6600 304.0000 1.0000
53.6700 292.0000 1.0000
53.6800 303.0000 1.0000
53.6900 279.0000 1.0000
53.7000 281.0000 1.0000
53.7100 285.0000 1.0000
53.7200 280.0000 1.0000
53.7300 293.0000 1.0000
53.7400 300.0000 1.0000
53.7500 319.0000 1.0000
53.7600 325.0000 1.0000
53.7700 305.0000 1.0000
53.7800 294.0000 1.0000
53.7900 273.0000 1.0000
53.8000 255.0000 1.0000
53.8100 302.0000 1.0000
53.8200 288.0000 1.0000
53.8300 294.0000 1.0000
53.8400 290.0000 1.0000
53.8500 288.0000 1.0000
53.8600 281.0000 1.0000
53.8700 299.0000 1.0000
53.8800 316.0000 1.0000
53.8900 335.0000 1.0000
53.9000 320.0000 1.0000
53.9100 295.0000 1.0000
53.9200 332.0000 1.0000
53.9300 299.0000 1.0000
53.9400 339.0000 1.0000
53.9500 312.0000 1.0000
53.9600 289.0000 1.0000
53.9700 325.0000 1.0000
53.9800 335.0000 1.0000
53.9900 304.0000 1.0000
54.0000 336.0000 1.0000
54.0100 312.0000 1.0000
54.0200 271.0000 1.0000
54.0300 312.0000 1.0000
54.0400 310.0000 1.0000
54.0500 316.0000 1.0000
54.0600 316.0000 1.0000
54.0700 327.0000 1.0000
54.0800 333.0000 1.0000
54.0900 338.0000 1.0000
54.1000 324.0000 1.0000
54.1100 327.0000 1.0000
54.1200 324.0000 1.0000
54.1300 325.0000 1.0000
54.1400 304.0000 1.0000
54.1500 317.0000 1.0000
54.1600 336.0000 1.0000
54.1700 327.0000 1.0000
54.1800 342.0000 1.0000
54.1900 340.0000 1.0000
54.2000 323.0000 1.0000
54.2100 297.0000 1.0000
54.2200 356.0000 1.0000
54.2300 335.0000 1.0000
54.2400 308.0000 1.0000
54.2500 318.0000 1.0000
54.2600 351.0000 1.0000
54.2700 328.0000 1.0000
54.2800 323.0000 1.0000
54.2900 335.0000 1.0000
54.3000 337.0000 1.0000
54.3100 351.0000 1.0000
54.3200 374.0000 1.0000
54.3300 338.0000 1.0000
54.3400 333.0000 1.0000
54.3500 364.0000 1.0000
54.3600 364.0000 1.0000
54.3700 383.0000 1.0000
54.3800 382.0000 1.0000
54.3900 397.0000 1.0000
54.4000 379.0000 1.0000
54.4100 400.0000 1.0000
54.4200 442.0000 1.0000
54.4300 413.0000 1.0000
54.4400 439.0000 1.0000
54.4500 426.0000 1.0000
54.4600 418.0000 1.0000
54.4700 433.0000 1.0000
54.4800 445.0000 1.0000
54.4900 424.0000 1.0000
54.5000 452.0000 1.0000
54.5100 449.0000 1.0000
54.5200 417.0000 1.0000
54.5300 448.0000 1.0000
54.5400 460.0000 1.0000
54.5500 437.0000 1.0000
54.5600 454.0000 1.0000
54.5700 436.0000 1.0000
54.5800 423.0000 1.0000
54.5900 460.0000 1.0000
54.6000 454.0000 1.0000
54.6100 415.0000 1.0000
54.6200 423.0000 1.0000
54.6300 437.0000 1.0000
54.6400 426.0000 1.0000
54.6500 381.0000 1.0000
54.6600 357.0000 1.0000
54.6700 369.0000 1.0000
54.6800 353.0000 1.0000
54.6900 358.0000 1.0000
54.7000 370.0000 1.0000
54.7100 365.0000 1.0000
54.7200 365.0000 1.0000
54.7300 368.0000 1.0000
54.7400 344.0000 1.0000
54.7500 386.0000 1.0000
54.7600 354.0000 1.0000
54.7700 328.0000 1.0000
54.7800 352.0000 1.0000
54.7900 347.0000 1.0000
54.8000 315.0000 1.0000
54.8100 311.0000 1.0000
54.8200 335.0000 1.0000
54.8300 332.0000 1.0000
54.8400 330.0000 1.0000
54.8500 336.0000 1.0000
54.8600 325.0000 1.0000
54.8700 321.0000 1.0000
54.8800 316.0000 1.0000
54.8900 298.0000 1.0000
54.9000 321.0000 1.0000
54.9100 317.0000 1.0000
54.9200 313.0000 1.0000
54.9300 319.0000 1.0000
54.9400 322.0000 1.0000
54.9500 286.0000 1.0000
54.9600 276.0000 1.0000
54.9700 285.0000 1.0000
54.9800 316.0000 1.0000
54.9900 311.0000 1.0000
55.0000 282.0000 1.0000
55.0100 281.0000 1.0000
55.0200 294.0000 1.0000
55.0300 317.0000 1.0000
55.0400 319.0000 1.0000
55.0500 330.0000 1.0000
55.0600 286.0000 1.0000
55.0700 278.0000 1.0000
55.0800 299.0000 1.0000
55.0900 287.0000 1.0000
55.1000 309.0000 1.0000
55.1100 286.0000 1.0000
55.1200 262.0000 1.0000
55.1300 298.0000 1.0000
55.1400 266.0000 1.0000
55.1500 276.0000 1.0000
55.1600 272.0000 1.0000
55.1700 283.0000 1.0000
55.1800 285.0000 1.0000
55.1900 278.0000 1.0000
55.2000 302.0000 1.0000
55.2100 300.0000 1.0000
55.2200 289.0000 1.0000
55.2300 274.0000 1.0000
55.2400 294.0000 1.0000
55.2500 283.0000 1.0000
55.2600 318.0000 1.0000
55.2700 311.0000 1.0000
55.2800 273.0000 1.0000
55.2900 293.0000 1.0000
55.3000 285.0000 1.0000
55.3100 310.0000 1.0000
55.3200 280.0000 1.0000
55.3300 261.0000 1.0000
55.3400 284.0000 1.0000
55.3500 301.0000 1.0000
55.3600 298.0000 1.0000
55.3700 289.0000 1.0000
55.3800 262.0000 1.0000
55.3900 277.0000 1.0000
55.4000 262.0000 1.0000
55.4100 279.0000 1.0000
55.4200 270.0000 1.0000
55.4300 251.0000 1.0000
55.4400 265.0000 1.0000
55.4500 277.0000 1.0000
55.4600 283.0000 1.0000
55.4700 312.0000 1.0000
55.4800 309.0000 1.0000
55.4900 320.0000 1.0000
55.5000 269.0000 1.0000
55.5100 285.0000 1.0000
55.5200 261.0000 1.0000
55.5300 271.0000 1.0000
55.5400 296.0000 1.0000
55.5500 273.0000 1.0000
55.5600 253.0000 1.0000
55.5700 287.0000 1.0000
55.5800 283.0000 1.0000
55.5900 318.0000 1.0000
55.6000 282.0000 1.0000
55.6100 305.0000 1.0000
55.6200 267.0000 1.0000
55.6300 276.0000 1.0000
55.6400 282.0000 1.0000
55.6500 288.0000 1.0000
55.6600 267.0000 1.0000
55.6700 294.0000 1.0000
55.6800 267.0000 1.0000
55.6900 298.0000 1.0000
55.7000 299.0000 1.0000
55.7100 272.0000 1.0000
55.7200 258.0000 1.0000
55.7300 301.0000 1.0000
55.7400 282.0000 1.0000
55.7500 297.0000 1.0000
55.7600 306.0000 1.0000
55.7700 297.0000 1.0000
55.7800 316.0000 1.0000
55.7900 279.0000 1.0000
55.8000 275.0000 1.0000
55.8100 253.0000 1.0000
55.8200 267.0000 1.0000
55.8300 271.0000 1.0000
55.8400 260.0000 1.0000
55.8500 275.0000 1.0000
55.8600 280.0000 1.0000
55.8700 290.0000 1.0000
55.8800 246.0000 1.0000
55.8900 287.0000 1.0000
55.9000 289.0000 1.0000
55.9100 245.0000 1.0000
55.9200 283.0000 1.0000
55.9300 256.0000 1.0000
55.9400 278.0000 1.0000
55.9500 282.0000 1.0000
55.9600 287.0000 1.0000
55.9700 320.0000 1.0000
55.9800 281.0000 1.0000
55.9900 277.0000 1.0000
56.0000 255.0000 1.0000
56.0100 269.0000 1.0000
56.0200 264.0000 1.0000
56.0300 297.0000 1.0000
56.0400 283.0000 1.0000
56.0500 286.0000 1.0000
56.0600 298.0000 1.0000
56.0700 282.0000 1.0000
56.0800 271.0000 1.0000
56.0900 250.0000 1.0000
56.1000 285.0000 1.0000
56.1100 297.0000 1.0000
56.1200 295.0000 1.0000
56.1300 292.0000 1.0000
56.1400 279.0000 1.0000
56.1500 268.0000 1.0000
56.1600 290.0000 1.0000
56.1700 291.0000 1.0000
56.1800 245.0000 1.0000
56.1900 313.0000 1.0000
56.2000 257.0000 1.0000
56.2100 254.0000 1.0000
56.2200 280.0000 1.0000
56.2300 273.0000 1.0000
56.2400 289.0000 1.0000
56.2500 299.0000 1.0000
56.2600 267.0000 1.0000
56.2700 292.0000 1.0000
56.2800 304.0000 1.0000
56.2900 273.0000 1.0000
56.3000 245.0000 1.0000
56.3100 285.0000 1.0000
56.3200 291.0000 1.0000
56.3300 304.0000 1.0000
56.3400 292.0000 1.0000
56.3500 290.0000 1.0000
56.3600 285.0000 1.0000
56.3700 279.0000 1.0000
56.3800 275.0000 1.0000
56.3900 282.0000 1.0000
56.4000 312.0000 1.0000
56.4100 266.0000 1.0000
56.4200 270.0000 1.0000
56.4300 246.0000 1.0000
56.4400 268.0000 1.0000
56.4500 246.0000 1.0000
56.4600 276.0000 1.0000
56.4700 277.0000 1.0000
56.4800 277.0000 1.0000
56.4900 268.0000 1.0000
56.5000 294.0000 1.0000
56.5100 284.0000 1.0000
56.5200 318.0000 1.0000
56.5300 277.0000 1.0000
56.5400 274.0000 1.0000
56.5500 290.0000 1.0000
56.5600 271.0000 1.0000
56.5700 287.0000 1.0000
56.5800 259.0000 1.0000
56.5900 287.0000 1.0000
56.6000 287.0000 1.0000
56.6100 296.0000 1.0000
56.6200 253.0000 1.0000
56.6300 287.0000 1.0000
56.6400 250.0000 1.0000
56.6500 276.0000 1.0000
56.6600 264.0000 1.0000
56.6700 265.0000 1.0000
56.6800 287.0000 1.0000
56.6900 268.0000 1.0000
56.7000 293.0000 1.0000
56.7100 310.0000 1.0000
56.7200 306.0000 1.0000
56.7300 274.0000 1.0000
56.7400 292.0000 1.0000
56.7500 285.0000 1.0000
56.7600 270.0000 1.0000
56.7700 278.0000 1.0000
56.7800 265.0000 1.0000
56.7900 278.0000 1.0000
56.8000 301.0000 1.0000
56.8100 301.0000 1.0000
56.8200 278.0000 1.0000
56.8300 282.0000 1.0000
56.8400 265.0000 1.0000
56.8500 281.0000 1.0000
56.8600 293.0000 1.0000
56.8700 267.0000 1.0000
56.8800 259.0000 1.0000
56.8900 259.0000 1.0000
56.9000 277.0000 1.0000
56.9100 282.0000 1.0000
56.9200 267.0000 1.0000
56.9300 285.0000 1.0000
56.9400 270.0000 1.0000
56.9500 284.0000 1.0000
56.9600 287.0000 1.0000
56.9700 256.0000 1.0000
56.9800 274.0000 1.0000
56.9900 296.0000 1.0000
57.0000 295.0000 1.0000
57.0100 271.0000 1.0000
57.0200 294.0000 1.0000
57.0300 259.0000 1.0000
57.0400 275.0000 1.0000
57.0500 288.0000 1.0000
57.0600 271.0000 1.0000
57.0700 249.0000 1.0000
57.0800 300.0000 1.0000
57.0900 285.0000 1.0000
57.1000 309.0000 1.0000
57.1100 296.0000 1.0000
57.1200 311.0000 1.0000
57.1300 279.0000 1.0000
57.1400 289.0000 1.0000
57.1500 292.0000 1.0000
57.1600 279.0000 1.0000
57.1700 261.0000 1.0000
57.1800 281.0000 1.0000
57.1900 273.0000 1.0000
57.2000 269.0000 1.0000
57.2100 299.0000 1.0000
57.2200 284.0000 1.0000
57.2300 294.0000 1.0000
57.2400 275.0000 1.0000
57.2500 284.0000 1.0000
57.2600 273.0000 1.0000
57.2700 259.0000 1.0000
57.2800 302.0000 1.0000
57.2900 264.0000 1.0000
57.3000 271.0000 1.0000
57.3100 277.0000 1.0000
57.3200 298.0000 1.0000
57.3300 277.0000 1.0000
57.3400 287.0000 1.0000
57.3500 301.0000 1.0000
57.3600 280.0000 1.0000
57.3700 277.0000 1.0000
57.3800 280.0000 1.0000
57.3900 278.0000 1.0000
57.4000 291.0000 1.0000
57.4100 303.0000 1.0000
57.4200 305.0000 1.0000
57.4300 266.0000 1.0000
57.4400 266.0000 1.0000
57.4500 264.0000 1.0000
57.4600 276.0000 1.0000
57.4700 286.0000 1.0000
57.4800 313.0000 1.0000
57.4900 283.0000 1.0000
57.5000 291.0000 1.0000
57.5100 259.0000 1.0000
57.5200 273.0000 1.0000
57.5300 301.0000 1.0000
57.5400 334.0000 1.0000
57.5500 286.0000 1.0000
57.5600 267.0000 1.0000
57.5700 273.0000 1.0000
57.5800 268.0000 1.0000
57.5900 278.0000 1.0000
57.6000 298.0000 1.0000
57.6100 285.0000 1.0000
57.6200 287.0000 1.0000
57.6300 294.0000 1.0000
57.6400 288.0000 1.0000
57.6500 285.0000 1.0000
57.6600 301.0000 1.0000
57.6700 304.0000 1.0000
57.6800 285.0000 1.0000
57.6900 260.0000 1.0000
57.7000 276.0000 1.0000
57.7100 272.0000 1.0000
57.7200 275.0000 1.0000
57.7300 303.0000 1.0000
57.7400 266.0000 1.0000
57.7500 275.0000 1.0000
57.7600 267.0000 1.0000
57.7700 256.0000 1.0000
57.7800 285.0000 1.0000
57.7900 269.0000 1.0000
57.8000 276.0000 1.0000
57.8100 307.0000 1.0000
57.8200 321.0000 1.0000
57.8300 271.0000 1.0000
57.8400 288.0000 1.0000
57.8500 285.0000 1.0000
57.8600 282.0000 1.0000
57.8700 266.0000 1.0000
57.8800 267.0000 1.0000
57.8900 267.0000 1.0000
57.9000 268.0000 1.0000
57.9100 271.0000 1.0000
57.9200 265.0000 1.0000
57.9300 266.0000 1.0000
57.9400 264.0000 1.0000
57.9500 299.0000 1.0000
57.9600 255.0000 1.0000
57.9700 286.0000 1.0000
57.9800 288.0000 1.0000
57.9900 282.0000 1.0000
58.0000 275.0000 1.0000
58.0100 279.0000 1.0000
58.0200 276.0000 1.0000
58.0300 278.0000 1.0000
58.0400 286.0000 1.0000
58.0500 274.0000 1.0000
58.0600 279.0000 1.0000
58.0700 288.0000 1.0000
58.0800 262.0000 1.0000
58.0900 283.0000 1.0000
58.1000 276.0000 1.0000
58.1100 271.0000 1.0000
58.1200 273.0000 1.0000
58.1300 283.0000 1.0000
58.1400 286.0000 1.0000
58.1500 291.0000 1.0000
58.1600 278.0000 1.0000
58.1700 258.0000 1.0000
58.1800 266.0000 1.0000
58.1900 293.0000 1.0000
58.2000 304.0000 1.0000
58.2100 283.0000 1.0000
58.2200 272.0000 1.0000
58.2300 263.0000 1.0000
58.2400 260.0000 1.0000
58.2500 301.0000 1.0000
58.2600 287.0000 1.0000
58.2700 253.0000 1.0000
58.2800 282.0000 1.0000
58.2900 276.0000 1.0000
58.3000 276.0000 1.0000
58.3100 255.0000 1.0000
58.3200 278.0000 1.0000
58.3300 278.0000 1.0000
58.3400 287.0000 1.0000
58.3500 273.0000 1.0000
58.3600 282.0000 1.0000
58.3700 290.0000 1.0000
58.3800 306.0000 1.0000
58.3900 279.0000 1.0000
58.4000 279.0000 1.0000
58.4100 279.0000 1.0000
58.4200 271.0000 1.0000
58.4300 280.0000 1.0000
58.4400 263.0000 1.0000
58.4500 279.0000 1.0000
58.4600 258.0000 1.0000
58.4700 256.0000 1.0000
58.4800 284.0000 1.0000
58.4900 285.0000 1.0000
58.5000 282.0000 1.0000
58.5100 261.0000 1.0000
58.5200 263.0000 1.0000
58.5300 284.0000 1.0000
58.5400 273.0000 1.0000
58.5500 280.0000 1.0000
58.5600 278.0000 1.0000
58.5700 258.0000 1.0000
58.5800 268.0000 1.0000
58.5900 279.0000 1.0000
58.6000 272.0000 1.0000
58.6100 278.0000 1.0000
58.6200 277.0000 1.0000
58.6300 256.0000 1.0000
58.6400 278.0000 1.0000
58.6500 281.0000 1.0000
58.6600 302.0000 1.0000
58.6700 273.0000 1.0000
58.6800 272.0000 1.0000
58.6900 263.0000 1.0000
58.7000 294.0000 1.0000
58.7100 285.0000 1.0000
58.7200 273.0000 1.0000
58.7300 269.0000 1.0000
58.7400 257.0000 1.0000
58.7500 286.0000 1.0000
58.7600 289.0000 1.0000
58.7700 256.0000 1.0000
58.7800 287.0000 1.0000
58.7900 279.0000 1.0000
58.8000 253.0000 1.0000
58.8100 257.0000 1.0000
58.8200 257.0000 1.0000
58.8300 255.0000 1.0000
58.8400 279.0000 1.0000
58.8500 273.0000 1.0000
58.8600 261.0000 1.0000
58.8700 278.0000 1.0000
58.8800 267.0000 1.0000
58.8900 292.0000 1.0000
58.9000 290.0000 1.0000
58.9100 272.0000 1.0000
58.9200 287.0000 1.0000
58.9300 278.0000 1.0000
58.9400 260.0000 1.0000
58.9500 272.0000 1.0000
58.9600 272.0000 1.0000
58.9700 295.0000 1.0000
58.9800 269.0000 1.0000
58.9900 250.0000 1.0000
59.0000 265.0000 1.0000
59.0100 258.0000 1.0000
59.0200 258.0000 1.0000
59.0300 265.0000 1.0000
59.0400 259.0000 1.0000
59.0500 298.0000 1.0000
59.0600 254.0000 1.0000
59.0700 280.0000 1.0000
59.0800 272.0000 1.0000
59.0900 261.0000 1.0000
59.1000 258.0000 1.0000
59.1100 267.0000 1.0000
59.1200 267.0000 1.0000
59.1300 281.0000 1.0000
59.1400 269.0000 1.0000
59.1500 273.0000 1.0000
59.1600 245.0000 1.0000
59.1700 264.0000 1.0000
59.1800 274.0000 1.0000
59.1900 257.0000 1.0000
59.2000 271.0000 1.0000
59.2100 268.0000 1.0000
59.2200 241.0000 1.0000
59.2300 272.0000 1.0000
59.2400 274.0000 1.0000
59.2500 289.0000 1.0000
59.2600 272.0000 1.0000
59.2700 284.0000 1.0000
59.2800 272.0000 1.0000
59.2900 283.0000 1.0000
59.3000 280.0000 1.0000
59.3100 255.0000 1.0000
59.3200 288.0000 1.0000
59.3300 265.0000 1.0000
59.3400 272.0000 1.0000
59.3500 255.0000 1.0000
59.3600 273.0000 1.0000
59.3700 266.0000 1.0000
59.3800 252.0000 1.0000
59.3900 256.0000 1.0000
59.4000 266.0000 1.0000
59.4100 282.0000 1.0000
59.4200 287.0000 1.0000
59.4300 285.0000 1.0000
59.4400 289.0000 1.0000
59.4500 277.0000 1.0000
59.4600 258.0000 1.0000
59.4700 272.0000 1.0000
59.4800 285.0000 1.0000
59.4900 284.0000 1.0000
59.5000 276.0000 1.0000
59.5100 266.0000 1.0000
59.5200 293.0000 1.0000
59.5300 283.0000 1.0000
59.5400 259.0000 1.0000
59.5500 270.0000 1.0000
59.5600 280.0000 1.0000
59.5700 284.0000 1.0000
59.5800 271.0000 1.0000
59.5900 273.0000 1.0000
59.6000 279.0000 1.0000
59.6100 271.0000 1.0000
59.6200 237.0000 1.0000
59.6300 250.0000 1.0000
59.6400 274.0000 1.0000
59.6500 262.0000 1.0000
59.6600 277.0000 1.0000
59.6700 271.0000 1.0000
59.6800 282.0000 1.0000
59.6900 250.0000 1.0000
59.7000 269.0000 1.0000
59.7100 280.0000 1.0000
59.7200 266.0000 1.0000
59.7300 277.0000 1.0000
59.7400 275.0000 1.0000
59.7500 256.0000 1.0000
59.7600 274.0000 1.0000
59.7700 293.0000 1.0000
59.7800 275.0000 1.0000
59.7900 283.0000 1.0000
59.8000 272.0000 1.0000
59.8100 260.0000 1.0000
59.8200 291.0000 1.0000
59.8300 271.0000 1.0000
59.8400 249.0000 1.0000
59.8500 296.0000 1.0000
59.8600 264.0000 1.0000
59.8700 265.0000 1.0000
59.8800 261.0000 1.0000
59.8900 272.0000 1.0000
59.9000 285.0000 1.0000
59.9100 261.0000 1.0000
59.9200 241.0000 1.0000
59.9300 264.0000 1.0000
59.9400 277.0000 1.0000
59.9500 275.0000 1.0000
59.9600 263.0000 1.0000
59.9700 240.0000 1.0000
59.9800 272.0000 1.0000
59.9900 281.0000 1.0000
60.0000 274.0000 1.0000
60.0100 258.0000 1.0000
60.0200 282.0000 1.0000
60.0300 279.0000 1.0000
60.0400 276.0000 1.0000
60.0500 283.0000 1.0000
60.0600 259.0000 1.0000
60.0700 278.0000 1.0000
60.0800 260.0000 1.0000
60.0900 268.0000 1.0000
60.1000 264.0000 1.0000
60.1100 271.0000 1.0000
60.1200 276.0000 1.0000
60.1300 285.0000 1.0000
60.1400 300.0000 1.0000
60.1500 289.0000 1.0000
60.1600 238.0000 1.0000
60.1700 259.0000 1.0000
60.1800 248.0000 1.0000
60.1900 286.0000 1.0000
60.2000 274.0000 1.0000
60.2100 270.0000 1.0000
60.2200 260.0000 1.0000
60.2300 281.0000 1.0000
60.2400 272.0000 1.0000
60.2500 296.0000 1.0000
60.2600 261.0000 1.0000
60.2700 268.0000 1.0000
60.2800 277.0000 1.0000
60.2900 254.0000 1.0000
60.3000 269.0000 1.0000
60.3100 274.0000 1.0000
60.3200 270.0000 1.0000
60.3300 302.0000 1.0000
60.3400 278.0000 1.0000
60.3500 262.0000 1.0000
60.3600 276.0000 1.0000
60.3700 258.0000 1.0000
60.3800 288.0000 1.0000
60.3900 255.0000 1.0000
60.4000 281.0000 1.0000
60.4100 277.0000 1.0000
60.4200 273.0000 1.0000
60.4300 260.0000 1.0000
60.4400 257.0000 1.0000
60.4500 266.0000 1.0000
60.4600 247.0000 1.0000
60.4700 261.0000 1.0000
60.4800 286.0000 1.0000
60.4900 280.0000 1.0000
60.5000 281.0000 1.0000
60.5100 294.0000 1.0000
60.5200 273.0000 1.0000
60.5300 260.0000 1.0000
60.5400 245.0000 1.0000
60.5500 247.0000 1.0000
60.5600 273.0000 1.0000
60.5700 274.0000 1.0000
60.5800 288.0000 1.0000
60.5900 264.0000 1.0000
60.6000 275.0000 1.0000
60.6100 288.0000 1.0000
60.6200 253.0000 1.0000
60.6300 278.0000 1.0000
60.6400 268.0000 1.0000
60.6500 283.0000 1.0000
60.6600 278.0000 1.0000
60.6700 325.0000 1.0000
60.6800 300.0000 1.0000
60.6900 266.0000 1.0000
60.7000 277.0000 1.0000
60.7100 263.0000 1.0000
60.7200 260.0000 1.0000
60.7300 284.0000 1.0000
60.7400 278.0000 1.0000
60.7500 268.0000 1.0000
60.7600 307.0000 1.0000
60.7700 296.0000 1.0000
60.7800 284.0000 1.0000
60.7900 290.0000 1.0000
60.8000 272.0000 1.0000
60.8100 287.0000 1.0000
60.8200 294.0000 1.0000
60.8300 293.0000 1.0000
60.8400 287.0000 1.0000
60.8500 273.0000 1.0000
60.8600 276.0000 1.0000
60.8700 265.0000 1.0000
60.8800 292.0000 1.0000
60.8900 297.0000 1.0000
60.9000 274.0000 1.0000
60.9100 267.0000 1.0000
60.9200 274.0000 1.0000
60.9300 263.0000 1.0000
60.9400 273.0000 1.0000
60.9500 297.0000 1.0000
60.9600 313.0000 1.0000
60.9700 291.0000 1.0000
60.9800 294.0000 1.0000
60.9900 300.0000 1.0000
61.0000 289.0000 1.0000
61.0100 275.0000 1.0000
61.0200 278.0000 1.0000
61.0300 278.0000 1.0000
61.0400 306.0000 1.0000
61.0500 272.0000 1.0000
61.0600 307.0000 1.0000
61.0700 309.0000 1.0000
61.0800 285.0000 1.0000
61.0900 285.0000 1.0000
61.1000 283.0000 1.0000
61.1100 279.0000 1.0000
61.1200 299.0000 1.0000
61.1300 318.0000 1.0000
61.1400 324.0000 1.0000
61.1500 305.0000 1.0000
61.1600 308.0000 1.0000
61.1700 327.0000 1.0000
61.1800 337.0000 1.0000
61.1900 303.0000 1.0000
61.2000 321.0000 1.0000
61.2100 319.0000 1.0000
61.2200 350.0000 1.0000
61.2300 353.0000 1.0000
61.2400 341.0000 1.0000
61.2500 351.0000 1.0000
61.2600 349.0000 1.0000
61.2700 360.0000 1.0000
61.2800 385.0000 1.0000
61.2900 390.0000 1.0000
61.3000 386.0000 1.0000
61.3100 389.0000 1.0000
61.3200 386.0000 1.0000
61.3300 410.0000 1.0000
61.3400 405.0000 1.0000
61.3500 401.0000 1.0000
61.3600 440.0000 1.0000
61.3700 478.0000 1.0000
61.3800 469.0000 1.0000
61.3900 440.0000 1.0000
61.4000 485.0000 1.0000
61.4100 468.0000 1.0000
61.4200 478.0000 1.0000
61.4300 528.0000 1.0000
61.4400 531.0000 1.0000
61.4500 549.0000 1.0000
61.4600 527.0000 1.0000
61.4700 524.0000 1.0000
61.4800 523.0000 1.0000
61.4900 558.0000 1.0000
61.5000 568.0000 1.0000
61.5100 547.0000 1.0000
61.5200 583.0000 1.0000
61.5300 528.0000 1.0000
61.5400 540.0000 1.0000
61.5500 568.0000 1.0000
61.5600 566.0000 1.0000
61.5700 585.0000 1.0000
61.5800 591.0000 1.0000
61.5900 577.0000 1.0000
61.6000 559.0000 1.0000
61.6100 540.0000 1.0000
61.6200 541.0000 1.0000
61.6300 566.0000 1.0000
61.6400 547.0000 1.0000
61.6500 550.0000 1.0000
61.6600 529.0000 1.0000
61.6700 483.0000 1.0000
61.6800 517.0000 1.0000
61.6900 468.0000 1.0000
61.7000 469.0000 1.0000
61.7100 472.0000 1.0000
61.7200 498.0000 1.0000
61.7300 475.0000 1.0000
61.7400 455.0000 1.0000
61.7500 480.0000 1.0000
61.7600 458.0000 1.0000
61.7700 418.0000 1.0000
61.7800 419.0000 1.0000
61.7900 452.0000 1.0000
61.8000 404.0000 1.0000
61.8100 405.0000 1.0000
61.8200 396.0000 1.0000
61.8300 406.0000 1.0000
61.8400 362.0000 1.0000
61.8500 389.0000 1.0000
61.8600 360.0000 1.0000
61.8700 366.0000 1.0000
61.8800 361.0000 1.0000
61.8900 346.0000 1.0000
61.9000 370.0000 1.0000
61.9100 360.0000 1.0000
61.9200 339.0000 1.0000
61.9300 376.0000 1.0000
61.9400 308.0000 1.0000
61.9500 337.0000 1.0000
61.9600 345.0000 1.0000
61.9700 311.0000 1.0000
61.9800 299.0000 1.0000
61.9900 321.0000 1.0000
62.0000 306.0000 1.0000
62.0100 333.0000 1.0000
62.0200 318.0000 1.0000
62.0300 314.0000 1.0000
62.0400 292.0000 1.0000
62.0500 301.0000 1.0000
62.0600 316.0000 1.0000
62.0700 322.0000 1.0000
62.0800 317.0000 1.0000
62.0900 307.0000 1.0000
62.1000 300.0000 1.0000
62.1100 278.0000 1.0000
62.1200 286.0000 1.0000
62.1300 308.0000 1.0000
62.1400 287.0000 1.0000
62.1500 275.0000 1.0000
62.1600 296.0000 1.0000
62.1700 295.0000 1.0000
62.1800 311.0000 1.0000
62.1900 295.0000 1.0000
62.2000 314.0000 1.0000
62.2100 300.0000 1.0000
62.2200 299.0000 1.0000
62.2300 285.0000 1.0000
62.2400 296.0000 1.0000
62.2500 285.0000 1.0000
62.2600 293.0000 1.0000
62.2700 295.0000 1.0000
62.2800 277.0000 1.0000
62.2900 288.0000 1.0000
62.3000 269.0000 1.0000
62.3100 298.0000 1.0000
62.3200 322.0000 1.0000
62.3300 297.0000 1.0000
62.3400 288.0000 1.0000
62.3500 295.0000 1.0000
62.3600 295.0000 1.0000
62.3700 300.0000 1.0000
62.3800 329.0000 1.0000
62.3900 280.0000 1.0000
62.4000 287.0000 1.0000
62.4100 319.0000 1.0000
62.4200 292.0000 1.0000
62.4300 294.0000 1.0000
62.4400 303.0000 1.0000
62.4500 307.0000 1.0000
62.4600 295.0000 1.0000
62.4700 298.0000 1.0000
62.4800 317.0000 1.0000
62.4900 311.0000 1.0000
62.5000 291.0000 1.0000
62.5100 298.0000 1.0000
62.5200 326.0000 1.0000
62.5300 313.0000 1.0000
62.5400 262.0000 1.0000
62.5500 270.0000 1.0000
62.5600 300.0000 1.0000
62.5700 295.0000 1.0000
62.5800 298.0000 1.0000
62.5900 276.0000 1.0000
62.6000 287.0000 1.0000
62.6100 295.0000 1.0000
62.6200 269.0000 1.0000
62.6300 316.0000 1.0000
62.6400 284.0000 1.0000
62.6500 269.0000 1.0000
62.6600 264.0000 1.0000
62.6700 285.0000 1.0000
62.6800 262.0000 1.0000
62.6900 304.0000 1.0000
62.7000 289.0000 1.0000
62.7100 276.0000 1.0000
62.7200 288.0000 1.0000
62.7300 274.0000 1.0000
62.7400 262.0000 1.0000
62.7500 302.0000 1.0000
62.7600 308.0000 1.0000
62.7700 278.0000 1.0000
62.7800 278.0000 1.0000
62.7900 285.0000 1.0000
62.8000 259.0000 1.0000
62.8100 289.0000 1.0000
62.8200 269.0000 1.0000
62.8300 297.0000 1.0000
62.8400 252.0000 1.0000
62.8500 279.0000 1.0000
62.8600 304.0000 1.0000
62.8700 270.0000 1.0000
62.8800 271.0000 1.0000
62.8900 241.0000 1.0000
62.9000 265.0000 1.0000
62.9100 285.0000 1.0000
62.9200 294.0000 1.0000
62.9300 274.0000 1.0000
62.9400 280.0000 1.0000
62.9500 257.0000 1.0000
62.9600 279.0000 1.0000
62.9700 269.0000 1.0000
62.9800 300.0000 1.0000
62.9900 272.0000 1.0000
63.0000 269.0000 1.0000
63.0100 272.0000 1.0000
63.0200 261.0000 1.0000
63.0300 260.0000 1.0000
63.0400 296.0000 1.0000
63.0500 256.0000 1.0000
63.0600 279.0000 1.0000
63.0700 250.0000 1.0000
63.0800 290.0000 1.0000
63.0900 245.0000 1.0000
63.1000 265.0000 1.0000
63.1100 260.0000 1.0000
63.1200 272.0000 1.0000
63.1300 247.0000 1.0000
63.1400 274.0000 1.0000
63.1500 267.0000 1.0000
63.1600 268.0000 1.0000
63.1700 279.0000 1.0000
63.1800 267.0000 1.0000
63.1900 256.0000 1.0000
63.2000 268.0000 1.0000
63.2100 244.0000 1.0000
63.2200 266.0000 1.0000
63.2300 279.0000 1.0000
63.2400 289.0000 1.0000
63.2500 280.0000 1.0000
63.2600 262.0000 1.0000
63.2700 299.0000 1.0000
63.2800 275.0000 1.0000
63.2900 289.0000 1.0000
63.3000 258.0000 1.0000
63.3100 241.0000 1.0000
63.3200 276.0000 1.0000
63.3300 272.0000 1.0000
63.3400 256.0000 1.0000
63.3500 299.0000 1.0000
63.3600 296.0000 1.0000
63.3700 280.0000 1.0000
63.3800 267.0000 1.0000
63.3900 257.0000 1.0000
63.4000 304.0000 1.0000
63.4100 277.0000 1.0000
63.4200 293.0000 1.0000
63.4300 308.0000 1.0000
63.4400 280.0000 1.0000
63.4500 266.0000 1.0000
63.4600 294.0000 1.0000
63.4700 275.0000 1.0000
63.4800 273.0000 1.0000
63.4900 278.0000 1.0000
63.5000 277.0000 1.0000
63.5100 304.0000 1.0000
63.5200 291.0000 1.0000
63.5300 286.0000 1.0000
63.5400 301.0000 1.0000
63.5500 268.0000 1.0000
63.5600 258.0000 1.0000
63.5700 290.0000 1.0000
63.5800 287.0000 1.0000
63.5900 265.0000 1.0000
63.6000 283.0000 1.0000
63.6100 291.0000 1.0000
63.6200 291.0000 1.0000
63.6300 292.0000 1.0000
63.6400 302.0000 1.0000
63.6500 297.0000 1.0000
63.6600 305.0000 1.0000
63.6700 298.0000 1.0000
63.6800 290.0000 1.0000
63.6900 304.0000 1.0000
63.7000 302.0000 1.0000
63.7100 293.0000 1.0000
63.7200 276.0000 1.0000
63.7300 301.0000 1.0000
63.7400 300.0000 1.0000
63.7500 298.0000 1.0000
63.7600 332.0000 1.0000
63.7700 340.0000 1.0000
63.7800 325.0000 1.0000
63.7900 330.0000 1.0000
63.8000 350.0000 1.0000
63.8100 326.0000 1.0000
63.8200 352.0000 1.0000
63.8300 356.0000 1.0000
63.8400 378.0000 1.0000
63.8500 356.0000 1.0000
63.8600 372.0000 1.0000
63.8700 382.0000 1.0000
63.8800 334.0000 1.0000
63.8900 362.0000 1.0000
63.9000 378.0000 1.0000
63.9100 366.0000 1.0000
63.9200 371.0000 1.0000
63.9300 403.0000 1.0000
63.9400 375.0000 1.0000
63.9500 391.0000 1.0000
63.9600 367.0000 1.0000
63.9700 381.0000 1.0000
63.9800 389.0000 1.0000
63.9900 397.0000 1.0000
64.0000 376.0000 1.0000
64.0100 397.0000 1.0000
64.0200 388.0000 1.0000
64.0300 371.0000 1.0000
64.0400 367.0000 1.0000
64.0500 394.0000 1.0000
64.0600 375.0000 1.0000
64.0700 375.0000 1.0000
64.0800 356.0000 1.0000
64.0900 382.0000 1.0000
64.1000 375.0000 1.0000
64.1100 365.0000 1.0000
64.1200 367.0000 1.0000
64.1300 355.0000 1.0000
64.1400 355.0000 1.0000
64.1500 362.0000 1.0000
64.1600 336.0000 1.0000
64.1700 324.0000 1.0000
64.1800 361.0000 1.0000
64.1900 347.0000 1.0000
64.2000 342.0000 1.0000
64.2100 332.0000 1.0000
64.2200 327.0000 1.0000
64.2300 338.0000 1.0000
64.2400 330.0000 1.0000
64.2500 327.0000 1.0000
64.2600 307.0000 1.0000
64.2700 322.0000 1.0000
64.2800 286.0000 1.0000
64.2900 300.0000 1.0000
64.3000 325.0000 1.0000
64.3100 284.0000 1.0000
64.3200 315.0000 1.0000
64.3300 307.0000 1.0000
64.3400 297.0000 1.0000
64.3500 293.0000 1.0000
64.3600 292.0000 1.0000
64.3700 284.0000 1.0000
64.3800 295.0000 1.0000
64.3900 290.0000 1.0000
64.4000 288.0000 1.0000
64.4100 296.0000 1.0000
64.4200 309.0000 1.0000
64.4300 295.0000 1.0000
64.4400 270.0000 1.0000
64.4500 290.0000 1.0000
64.4600 297.0000 1.0000
64.4700 274.0000 1.0000
64.4800 270.0000 1.0000
64.4900 299.0000 1.0000
64.5000 301.0000 1.0000
64.5100 284.0000 1.0000
64.5200 304.0000 1.0000
64.5300 306.0000 1.0000
64.5400 299.0000 1.0000
64.5500 300.0000 1.0000
64.5600 318.0000 1.0000
64.5700 278.0000 1.0000
64.5800 279.0000 1.0000
64.5900 259.0000 1.0000
64.6000 270.0000 1.0000
64.6100 253.0000 1.0000
64.6200 271.0000 1.0000
64.6300 263.0000 1.0000
64.6400 280.0000 1.0000
64.6500 297.0000 1.0000
64.6600 264.0000 1.0000
64.6700 297.0000 1.0000
64.6800 295.0000 1.0000
64.6900 289.0000 1.0000
64.7000 297.0000 1.0000
64.7100 300.0000 1.0000
64.7200 285.0000 1.0000
64.7300 288.0000 1.0000
64.7400 294.0000 1.0000
64.7500 264.0000 1.0000
64.7600 284.0000 1.0000
64.7700 305.0000 1.0000
64.7800 329.0000 1.0000
64.7900 294.0000 1.0000
64.8000 302.0000 1.0000
64.8100 285.0000 1.0000
64.8200 290.0000 1.0000
64.8300 272.0000 1.0000
64.8400 298.0000 1.0000
64.8500 281.0000 1.0000
64.8600 293.0000 1.0000
64.8700 302.0000 1.0000
64.8800 307.0000 1.0000
64.8900 303.0000 1.0000
64.9000 288.0000 1.0000
64.9100 295.0000 1.0000
64.9200 282.0000 1.0000
64.9300 286.0000 1.0000
64.9400 276.0000 1.0000
64.9500 285.0000 1.0000
64.9600 297.0000 1.0000
64.9700 307.0000 1.0000
64.9800 309.0000 1.0000
64.9900 272.0000 1.0000
65.0000 275.0000 1.0000
65.0100 333.0000 1.0000
65.0200 351.0000 1.0000
65.0300 317.0000 1.0000
65.0400 304.0000 1.0000
65.0500 294.0000 1.0000
65.0600 297.0000 1.0000
65.0700 311.0000 1.0000
65.0800 330.0000 1.0000
65.0900 305.0000 1.0000
65.1000 320.0000 1.0000
65.1100 340.0000 1.0000
65.1200 329.0000 1.0000
65.1300 318.0000 1.0000
65.1400 329.0000 1.0000
65.1500 342.0000 1.0000
65.1600 352.0000 1.0000
65.1700 339.0000 1.0000
65.1800 384.0000 1.0000
65.1900 372.0000 1.0000
65.2000 343.0000 1.0000
65.2100 370.0000 1.0000
65.2200 397.0000 1.0000
65.2300 382.0000 1.0000
65.2400 373.0000 1.0000
65.2500 426.0000 1.0000
65.2600 425.0000 1.0000
65.2700 424.0000 1.0000
65.2800 405.0000 1.0000
65.2900 447.0000 1.0000
65.3000 473.0000 1.0000
65.3100 466.0000 1.0000
65.3200 477.0000 1.0000
65.3300 489.0000 1.0000
65.3400 518.0000 1.0000
65.3500 549.0000 1.0000
65.3600 582.0000 1.0000
65.3700 617.0000 1.0000
65.3800 627.0000 1.0000
65.3900 704.0000 1.0000
65.4000 694.0000 1.0000
65.4100 793.0000 1.0000
65.4200 768.0000 1.0000
65.4300 884.0000 1.0000
65.4400 801.0000 1.0000
65.4500 843.0000 1.0000
65.4600 862.0000 1.0000
65.4700 881.0000 1.0000
65.4800 923.0000 1.0000
65.4900 891.0000 1.0000
65.5000 916.0000 1.0000
65.5100 908.0000 1.0000
65.5200 947.0000 1.0000
65.5300 896.0000 1.0000
65.5400 921.0000 1.0000
65.5500 925.0000 1.0000
65.5600 957.0000 1.0000
65.5700 947.0000 1.0000
65.5800 904.0000 1.0000
65.5900 854.0000 1.0000
65.6000 860.0000 1.0000
65.6100 894.0000 1.0000
65.6200 868.0000 1.0000
65.6300 898.0000 1.0000
65.6400 861.0000 1.0000
65.6500 891.0000 1.0000
65.6600 838.0000 1.0000
65.6700 829.0000 1.0000
65.6800 773.0000 1.0000
65.6900 723.0000 1.0000
65.7000 786.0000 1.0000
65.7100 789.0000 1.0000
65.7200 755.0000 1.0000
65.7300 726.0000 1.0000
65.7400 706.0000 1.0000
65.7500 637.0000 1.0000
65.7600 589.0000 1.0000
65.7700 640.0000 1.0000
65.7800 614.0000 1.0000
65.7900 607.0000 1.0000
65.8000 575.0000 1.0000
65.8100 546.0000 1.0000
65.8200 518.0000 1.0000
65.8300 486.0000 1.0000
65.8400 507.0000 1.0000
65.8500 489.0000 1.0000
65.8600 504.0000 1.0000
65.8700 472.0000 1.0000
65.8800 438.0000 1.0000
65.8900 448.0000 1.0000
65.9000 446.0000 1.0000
65.9100 438.0000 1.0000
65.9200 420.0000 1.0000
65.9300 387.0000 1.0000
65.9400 376.0000 1.0000
65.9500 391.0000 1.0000
65.9600 362.0000 1.0000
65.9700 363.0000 1.0000
65.9800 368.0000 1.0000
65.9900 369.0000 1.0000
66.0000 349.0000 1.0000
66.0100 347.0000 1.0000
66.0200 350.0000 1.0000
66.0300 359.0000 1.0000
66.0400 327.0000 1.0000
66.0500 297.0000 1.0000
66.0600 321.0000 1.0000
66.0700 315.0000 1.0000
66.0800 334.0000 1.0000
66.0900 343.0000 1.0000
66.1000 308.0000 1.0000
66.1100 298.0000 1.0000
66.1200 296.0000 1.0000
66.1300 280.0000 1.0000
66.1400 284.0000 1.0000
66.1500 327.0000 1.0000
66.1600 296.0000 1.0000
66.1700 310.0000 1.0000
66.1800 301.0000 1.0000
66.1900 298.0000 1.0000
66.2000 294.0000 1.0000
66.2100 322.0000 1.0000
66.2200 304.0000 1.0000
66.2300 278.0000 1.0000
66.2400 276.0000 1.0000
66.2500 273.0000 1.0000
66.2600 263.0000 1.0000
66.2700 283.0000 1.0000
66.2800 288.0000 1.0000
66.2900 292.0000 1.0000
66.3000 271.0000 1.0000
66.3100 281.0000 1.0000
66.3200 270.0000 1.0000
66.3300 283.0000 1.0000
66.3400 270.0000 1.0000
66.3500 263.0000 1.0000
66.3600 263.0000 1.0000
66.3700 263.0000 1.0000
66.3800 270.0000 1.0000
66.3900 277.0000 1.0000
66.4000 277.0000 1.0000
66.4100 296.0000 1.0000
66.4200 270.0000 1.0000
66.4300 282.0000 1.0000
66.4400 276.0000 1.0000
66.4500 257.0000 1.0000
66.4600 260.0000 1.0000
66.4700 271.0000 1.0000
66.4800 258.0000 1.0000
66.4900 237.0000 1.0000
66.5000 237.0000 1.0000
66.5100 252.0000 1.0000
66.5200 261.0000 1.0000
66.5300 298.0000 1.0000
66.5400 256.0000 1.0000
66.5500 232.0000 1.0000
66.5600 281.0000 1.0000
66.5700 289.0000 1.0000
66.5800 260.0000 1.0000
66.5900 287.0000 1.0000
66.6000 259.0000 1.0000
66.6100 261.0000 1.0000
66.6200 270.0000 1.0000
66.6300 258.0000 1.0000
66.6400 236.0000 1.0000
66.6500 249.0000 1.0000
66.6600 244.0000 1.0000
66.6700 257.0000 1.0000
66.6800 266.0000 1.0000
66.6900 263.0000 1.0000
66.7000 237.0000 1.0000
66.7100 263.0000 1.0000
66.7200 277.0000 1.0000
66.7300 263.0000 1.0000
66.7400 251.0000 1.0000
66.7500 247.0000 1.0000
66.7600 256.0000 1.0000
66.7700 252.0000 1.0000
66.7800 256.0000 1.0000
66.7900 273.0000 1.0000
66.8000 250.0000 1.0000
66.8100 238.0000 1.0000
66.8200 231.0000 1.0000
66.8300 234.0000 1.0000
66.8400 259.0000 1.0000
66.8500 257.0000 1.0000
66.8600 241.0000 1.0000
66.8700 247.0000 1.0000
66.8800 243.0000 1.0000
66.8900 245.0000 1.0000
66.9000 285.0000 1.0000
66.9100 249.0000 1.0000
66.9200 258.0000 1.0000
66.9300 258.0000 1.0000
66.9400 233.0000 1.0000
66.9500 236.0000 1.0000
66.9600 268.0000 1.0000
66.9700 252.0000 1.0000
66.9800 250.0000 1.0000
66.9900 258.0000 1.0000
67.0000 240.0000 1.0000
67.0100 255.0000 1.0000
67.0200 266.0000 1.0000
67.0300 237.0000 1.0000
67.0400 238.0000 1.0000
67.0500 234.0000 1.0000
67.0600 224.0000 1.0000
67.0700 235.0000 1.0000
67.0800 255.0000 1.0000
67.0900 237.0000 1.0000
67.1000 252.0000 1.0000
67.1100 249.0000 1.0000
67.1200 229.0000 1.0000
67.1300 246.0000 1.0000
67.1400 266.0000 1.0000
67.1500 248.0000 1.0000
67.1600 233.0000 1.0000
67.1700 259.0000 1.0000
67.1800 247.0000 1.0000
67.1900 216.0000 1.0000
67.2000 237.0000 1.0000
67.2100 256.0000 1.0000
67.2200 236.0000 1.0000
67.2300 277.0000 1.0000
67.2400 236.0000 1.0000
67.2500 263.0000 1.0000
67.2600 248.0000 1.0000
67.2700 256.0000 1.0000
67.2800 281.0000 1.0000
67.2900 258.0000 1.0000
67.3000 240.0000 1.0000
67.3100 234.0000 1.0000
67.3200 248.0000 1.0000
67.3300 223.0000 1.0000
67.3400 242.0000 1.0000
67.3500 240.0000 1.0000
67.3600 274.0000 1.0000
67.3700 260.0000 1.0000
67.3800 252.0000 1.0000
67.3900 256.0000 1.0000
67.4000 226.0000 1.0000
67.4100 226.0000 1.0000
67.4200 213.0000 1.0000
67.4300 258.0000 1.0000
67.4400 255.0000 1.0000
67.4500 261.0000 1.0000
67.4600 264.0000 1.0000
67.4700 255.0000 1.0000
67.4800 257.0000 1.0000
67.4900 252.0000 1.0000
67.5000 266.0000 1.0000
67.5100 267.0000 1.0000
67.5200 228.0000 1.0000
67.5300 240.0000 1.0000
67.5400 246.0000 1.0000
67.5500 236.0000 1.0000
67.5600 255.0000 1.0000
67.5700 254.0000 1.0000
67.5800 236.0000 1.0000
67.5900 261.0000 1.0000
67.6000 271.0000 1.0000
67.6100 242.0000 1.0000
67.6200 241.0000 1.0000
67.6300 234.0000 1.0000
67.6400 224.0000 1.0000
67.6500 245.0000 1.0000
67.6600 259.0000 1.0000
67.6700 265.0000 1.0000
67.6800 242.0000 1.0000
67.6900 218.0000 1.0000
67.7000 247.0000 1.0000
67.7100 250.0000 1.0000
67.7200 256.0000 1.0000
67.7300 235.0000 1.0000
67.7400 266.0000 1.0000
67.7500 245.0000 1.0000
67.7600 267.0000 1.0000
67.7700 252.0000 1.0000
67.7800 255.0000 1.0000
67.7900 252.0000 1.0000
67.8000 257.0000 1.0000
67.8100 254.0000 1.0000
67.8200 231.0000 1.0000
67.8300 218.0000 1.0000
67.8400 225.0000 1.0000
67.8500 227.0000 1.0000
67.8600 243.0000 1.0000
67.8700 258.0000 1.0000
67.8800 256.0000 1.0000
67.8900 257.0000 1.0000
67.9000 221.0000 1.0000
67.9100 243.0000 1.0000
67.9200 240.0000 1.0000
67.9300 241.0000 1.0000
67.9400 253.0000 1.0000
67.9500 272.0000 1.0000
67.9600 239.0000 1.0000
67.9700 227.0000 1.0000
67.9800 218.0000 1.0000
67.9900 226.0000 1.0000
68.0000 222.0000 1.0000
68.0100 232.0000 1.0000
68.0200 252.0000 1.0000
68.0300 239.0000 1.0000
68.0400 227.0000 1.0000
68.0500 252.0000 1.0000
68.0600 234.0000 1.0000
68.0700 264.0000 1.0000
68.0800 242.0000 1.0000
68.0900 241.0000 1.0000
68.1000 233.0000 1.0000
68.1100 249.0000 1.0000
68.1200 223.0000 1.0000
68.1300 249.0000 1.0000
68.1400 270.0000 1.0000
68.1500 242.0000 1.0000
68.1600 240.0000 1.0000
68.1700 252.0000 1.0000
68.1800 247.0000 1.0000
68.1900 212.0000 1.0000
68.2000 249.0000 1.0000
68.2100 234.0000 1.0000
68.2200 238.0000 1.0000
68.2300 237.0000 1.0000
68.2400 226.0000 1.0000
68.2500 227.0000 1.0000
68.2600 253.0000 1.0000
68.2700 248.0000 1.0000
68.2800 218.0000 1.0000
68.2900 219.0000 1.0000
68.3000 243.0000 1.0000
68.3100 281.0000 1.0000
68.3200 247.0000 1.0000
68.3300 228.0000 1.0000
68.3400 218.0000 1.0000
68.3500 246.0000 1.0000
68.3600 236.0000 1.0000
68.3700 215.0000 1.0000
68.3800 227.0000 1.0000
68.3900 237.0000 1.0000
68.4000 231.0000 1.0000
68.4100 234.0000 1.0000
68.4200 251.0000 1.0000
68.4300 253.0000 1.0000
68.4400 221.0000 1.0000
68.4500 232.0000 1.0000
68.4600 229.0000 1.0000
68.4700 229.0000 1.0000
68.4800 247.0000 1.0000
68.4900 257.0000 1.0000
68.5000 259.0000 1.0000
68.5100 237.0000 1.0000
68.5200 239.0000 1.0000
68.5300 233.0000 1.0000
68.5400 230.0000 1.0000
68.5500 212.0000 1.0000
68.5600 238.0000 1.0000
68.5700 243.0000 1.0000
68.5800 253.0000 1.0000
68.5900 271.0000 1.0000
68.6000 222.0000 1.0000
68.6100 244.0000 1.0000
68.6200 256.0000 1.0000
68.6300 245.0000 1.0000
68.6400 267.0000 1.0000
68.6500 276.0000 1.0000
68.6600 251.0000 1.0000
68.6700 271.0000 1.0000
68.6800 213.0000 1.0000
68.6900 223.0000 1.0000
68.7000 252.0000 1.0000
68.7100 236.0000 1.0000
68.7200 253.0000 1.0000
68.7300 221.0000 1.0000
68.7400 245.0000 1.0000
68.7500 245.0000 1.0000
68.7600 238.0000 1.0000
68.7700 265.0000 1.0000
68.7800 225.0000 1.0000
68.7900 247.0000 1.0000
68.8000 243.0000 1.0000
68.8100 238.0000 1.0000
68.8200 251.0000 1.0000
68.8300 241.0000 1.0000
68.8400 265.0000 1.0000
68.8500 242.0000 1.0000
68.8600 226.0000 1.0000
68.8700 245.0000 1.0000
68.8800 249.0000 1.0000
68.8900 248.0000 1.0000
68.9000 228.0000 1.0000
68.9100 229.0000 1.0000
68.9200 225.0000 1.0000
68.9300 233.0000 1.0000
68.9400 239.0000 1.0000
68.9500 244.0000 1.0000
68.9600 251.0000 1.0000
68.9700 236.0000 1.0000
68.9800 234.0000 1.0000
68.9900 220.0000 1.0000
69.0000 247.0000 1.0000
69.0100 230.0000 1.0000
69.0200 276.0000 1.0000
69.0300 241.0000 1.0000
69.0400 268.0000 1.0000
69.0500 245.0000 1.0000
69.0600 248.0000 1.0000
69.0700 228.0000 1.0000
69.0800 226.0000 1.0000
69.0900 238.0000 1.0000
69.1000 229.0000 1.0000
69.1100 219.0000 1.0000
69.1200 235.0000 1.0000
69.1300 223.0000 1.0000
69.1400 236.0000 1.0000
69.1500 269.0000 1.0000
69.1600 245.0000 1.0000
69.1700 248.0000 1.0000
69.1800 244.0000 1.0000
69.1900 222.0000 1.0000
69.2000 251.0000 1.0000
69.2100 229.0000 1.0000
69.2200 236.0000 1.0000
69.2300 242.0000 1.0000
69.2400 208.0000 1.0000
69.2500 232.0000 1.0000
69.2600 207.0000 1.0000
69.2700 233.0000 1.0000
69.2800 248.0000 1.0000
69.2900 237.0000 1.0000
69.3000 237.0000 1.0000
69.3100 214.0000 1.0000
69.3200 243.0000 1.0000
69.3300 218.0000 1.0000
69.3400 240.0000 1.0000
69.3500 237.0000 1.0000
69.3600 231.0000 1.0000
69.3700 255.0000 1.0000
69.3800 243.0000 1.0000
69.3900 247.0000 1.0000
69.4000 247.0000 1.0000
69.4100 230.0000 1.0000
69.4200 214.0000 1.0000
69.4300 230.0000 1.0000
69.4400 232.0000 1.0000
69.4500 246.0000 1.0000
69.4600 253.0000 1.0000
69.4700 243.0000 1.0000
69.4800 210.0000 1.0000
69.4900 238.0000 1.0000
69.5000 222.0000 1.0000
69.5100 218.0000 1.0000
69.5200 236.0000 1.0000
69.5300 235.0000 1.0000
69.5400 212.0000 1.0000
69.5500 232.0000 1.0000
69.5600 249.0000 1.0000
69.5700 251.0000 1.0000
69.5800 236.0000 1.0000
69.5900 237.0000 1.0000
69.6000 250.0000 1.0000
69.6100 236.0000 1.0000
69.6200 233.0000 1.0000
69.6300 221.0000 1.0000
69.6400 227.0000 1.0000
69.6500 216.0000 1.0000
69.6600 219.0000 1.0000
69.6700 229.0000 1.0000
69.6800 237.0000 1.0000
69.6900 241.0000 1.0000
69.7000 240.0000 1.0000
69.7100 236.0000 1.0000
69.7200 247.0000 1.0000
69.7300 261.0000 1.0000
69.7400 267.0000 1.0000
69.7500 215.0000 1.0000
69.7600 238.0000 1.0000
69.7700 214.0000 1.0000
69.7800 220.0000 1.0000
69.7900 202.0000 1.0000
69.8000 231.0000 1.0000
69.8100 218.0000 1.0000
69.8200 247.0000 1.0000
69.8300 244.0000 1.0000
69.8400 228.0000 1.0000
69.8500 236.0000 1.0000
69.8600 220.0000 1.0000
69.8700 212.0000 1.0000
69.8800 225.0000 1.0000
69.8900 258.0000 1.0000
69.9000 263.0000 1.0000
69.9100 236.0000 1.0000
69.9200 233.0000 1.0000
69.9300 230.0000 1.0000
69.9400 225.0000 1.0000
69.9500 218.0000 1.0000
69.9600 212.0000 1.0000
69.9700 224.0000 1.0000
69.9800 264.0000 1.0000
69.9900 229.0000 1.0000
70.0000 230.0000 1.0000
*RAS_INT_END
*RAS_TEMPERATURE_START
*RAS_TEMPERATURE_END
*RAS_DATA_END
