*RAS_DATA_START
*RAS_HEADER_START
*DISP_FMT_X "%.2f"
*DISP_FMT_Y "%.0f"
*DISP_FULLSCALE "14380.0000000000"
*DISP_LINE_COLOR "255.0000000000"
*DISP_LINE_STYLE "0.0000000000"
*DISP_LINE_WIDTH "0.2500000000"
*DISP_NOTE "測定データ-8"
*DISP_OFFSET_Y "0.0000000000"
*DISP_PEAKSEARCH_UNIT_Y "cps"
*DISP_RANGE_BOTTOM "0.0000000000"
*DISP_RANGE_LEFT "20.0000000000"
*DISP_RANGE_LOGCUTOFF "0.0100000000"
*DISP_RANGE_RIGHT "70.0000000000"
*DISP_RANGE_TOP "14380.0000000000"
*DISP_SCALE_MODE_Y "0.0000000000"
*DISP_TAB_NAME "2θ/θ"
*DISP_TITLE_Y "強度"
*DISP_UNIT_Y "cps"
*DISP_WINDOW_NAME "MSG_MACROENGINE"
*FILE_COMMENT " "
*FILE_MD5 ""
*FILE_MEMO " "
*FILE_OPERATOR "Administrator"
*FILE_SAMPLE " "
*FILE_TYPE "RAS_RAW"
*FILE_USERGROUP "システムマネージャ"
*FILE_VERSION "1.0000000000"
*HW_ATTACHMENT_ID "ATT0025"
*HW_ATTACHMENT_NAME "標準|Standard"
*HW_COUNTER_ID-0 "CUT0025"
*HW_COUNTER_ID-1 "CUT0020"
*HW_COUNTER_ID-2 "CUT0020"
*HW_COUNTER_ID-3 "CSL0021"
*HW_COUNTER_ID-4 "CMC0021"
*HW_COUNTER_NAME-0 "D/teX Ultra|D/teX Ultra"
*HW_COUNTER_NAME-1 "None|None"
*HW_COUNTER_NAME-2 "None|None"
*HW_COUNTER_NAME-3 "BBM|BBM"
*HW_COUNTER_NAME-4 "検出器モノクロメータ|Detector monochromator"
*HW_COUNTER_SELECT_NAME "D/teX Ultra|D/teX Ultra"
*HW_GONIOMETER_ID "GON0023"
*HW_GONIOMETER_NAME "SmartLab|SmartLab"
*HW_GONIOMETER_RADIUS-0 "90.0"
*HW_GONIOMETER_RADIUS-1 "114.0"
*HW_GONIOMETER_RADIUS-2 "190.0"
*HW_GONIOMETER_RADIUS-3 "300.0"
*HW_GONIOMETER_RADIUS-4 "187.0"
*HW_GONIOMETER_RADIUS-5 "300.0"
*HW_GONIOMETER_RADIUS-6 "113.0"
*HW_GONIOMETER_RADIUS-7 "331.0"
*HW_I_OPT_ID-0 "CBO0021"
*HW_I_OPT_ID-1 "ICR0023"
*HW_I_OPT_ID-2 "ISL0021"
*HW_I_OPT_ID-3 "ISO0021"
*HW_I_OPT_ID-4 "IAD0021"
*HW_I_OPT_ID-5 "IPR0001"
*HW_I_OPT_NAME-0 "CBOユニット|CBO unit"
*HW_I_OPT_NAME-1 "標準入射光学ユニット|Standard incident optical unit"
*HW_I_OPT_NAME-2 "標準入射スリットボックス|Standard incident slit box"
*HW_I_OPT_NAME-3 "入射平行スリット|Incident parallel slit"
*HW_I_OPT_NAME-4 "長手制限スリット|Length limiting slit"
*HW_I_OPT_NAME-5 "None|None"
*HW_R_ATTENUATER_AUTOMODE "0"
*HW_R_OPT_ID-0 "RSS0021"
*HW_R_OPT_ID-1 "RCR0023"
*HW_R_OPT_ID-2 "RSO0021"
*HW_R_OPT_ID-3 "RRS0021"
*HW_R_OPT_ID-4 "ATN0021"
*HW_R_OPT_ID-5 "RFL0021"
*HW_R_OPT_ID-6 "RAD0021"
*HW_R_OPT_NAME-0 "標準受光スリットボックス1|Standard receiving slit box # 1"
*HW_R_OPT_NAME-1 "標準受光光学ユニット1|Standard receiving unit # 1"
*HW_R_OPT_NAME-2 "標準受光光学ユニット2|Standard receiving optical unit # 2"
*HW_R_OPT_NAME-3 "標準受光スリットボックス2|Standard receiving slit box # 2"
*HW_R_OPT_NAME-4 "標準アッテネータ|Standard Attenuator"
*HW_R_OPT_NAME-5 "Cu Kβ|Cu K-beta"
*HW_R_OPT_NAME-6 "調整用受光スリット|Alignment receiving slit"
*HW_SAMPLE_HOLDER_ID "SMP0023"
*HW_SAMPLE_HOLDER_NAME "標準Zステージ|Standard Z stage"
*HW_XG_CURRENT_MAX "50"
*HW_XG_CURRENT_MIN "2"
*HW_XG_CURRENT_RESOLUTION "1"
*HW_XG_CURRENT_UNIT "mA"
*HW_XG_FOCUS "1mm x 10mm"
*HW_XG_FOCUS_TYPE "Normal"
*HW_XG_ID ""
*HW_XG_NAME "3kW 封入管(ID:1200)|3kW Sealed tube(ID:1200)"
*HW_XG_TARGET_ATOMIC_NUMBER "29.0000000000"
*HW_XG_TARGET_NAME "Cu"
*HW_XG_TYPE "Hermetic"
*HW_XG_VOLTAGE_MAX "60"
*HW_XG_VOLTAGE_MIN "20"
*HW_XG_VOLTAGE_RESOLUTION "1"
*HW_XG_VOLTAGE_UNIT "kV"
*HW_XG_WATT_MAX "1.500"
*HW_XG_WATT_UNIT "kW"
*HW_XG_WAVE_LENGTH_ALPHA1 "1.540593"
*HW_XG_WAVE_LENGTH_ALPHA2 "1.544414"
*HW_XG_WAVE_LENGTH_BETA "1.392250"
*MEAS_COND_AXIS_NAME-0 "2θ/θ"
*MEAS_COND_AXIS_NAME-1 "2θ"
*MEAS_COND_AXIS_NAME-2 "ω"
*MEAS_COND_AXIS_NAME-3 "Z"
*MEAS_COND_AXIS_NAME-4 "2θ/ω"
*MEAS_COND_AXIS_NAME-5 "θs"
*MEAS_COND_AXIS_NAME-6 "θd"
*MEAS_COND_AXIS_NAME-7 "Ts"
*MEAS_COND_AXIS_NAME-8 "CBO選択スリット"
*MEAS_COND_AXIS_NAME-9 "M"
*MEAS_COND_AXIS_NAME-10 "入射平行スリット"
*MEAS_COND_AXIS_NAME-11 "入射スリット"
*MEAS_COND_AXIS_NAME-12 ""
*MEAS_COND_AXIS_NAME-13 "Zs"
*MEAS_COND_AXIS_NAME-14 "入射光学素子"
*MEAS_COND_AXIS_NAME-15 "長手制限スリット"
*MEAS_COND_AXIS_NAME-16 "センタースリット"
*MEAS_COND_AXIS_NAME-17 "フィルター"
*MEAS_COND_AXIS_NAME-18 "受光スリット1"
*MEAS_COND_AXIS_NAME-19 "受光スリット2"
*MEAS_COND_AXIS_NAME-20 "受光光学素子"
*MEAS_COND_AXIS_NAME-21 "受光平行スリット"
*MEAS_COND_AXIS_NAME-22 "調整用受光スリット"
*MEAS_COND_AXIS_NAME-23 ""
*MEAS_COND_AXIS_NAME-24 ""
*MEAS_COND_AXIS_NAME-25 "Zd"
*MEAS_COND_AXIS_NAME-26 "アッテネータ"
*MEAS_COND_AXIS_NAME-27 "検出器モノクロメータ"
*MEAS_COND_AXIS_NAME-28 "モノクロメータスリット"
*MEAS_COND_AXIS_NAME-29 "プライマリビーム"
*MEAS_COND_AXIS_NAME-30 "PHA"
*MEAS_COND_AXIS_NAME_INTERNAL-0 "TwoThetaTheta"
*MEAS_COND_AXIS_NAME_INTERNAL-1 "TwoTheta"
*MEAS_COND_AXIS_NAME_INTERNAL-2 "Omega"
*MEAS_COND_AXIS_NAME_INTERNAL-3 "Z"
*MEAS_COND_AXIS_NAME_INTERNAL-4 "TwoThetaOmega"
*MEAS_COND_AXIS_NAME_INTERNAL-5 "ThetaS"
*MEAS_COND_AXIS_NAME_INTERNAL-6 "ThetaD"
*MEAS_COND_AXIS_NAME_INTERNAL-7 "Ts"
*MEAS_COND_AXIS_NAME_INTERNAL-8 "CBO"
*MEAS_COND_AXIS_NAME_INTERNAL-9 "CBO-M"
*MEAS_COND_AXIS_NAME_INTERNAL-10 "IncidentSollerSlit"
*MEAS_COND_AXIS_NAME_INTERNAL-11 "IncidentSlitBox"
*MEAS_COND_AXIS_NAME_INTERNAL-12 "IncidentSlitBox-_Axis"
*MEAS_COND_AXIS_NAME_INTERNAL-13 "Zs"
*MEAS_COND_AXIS_NAME_INTERNAL-14 "IncidentMonochromator"
*MEAS_COND_AXIS_NAME_INTERNAL-15 "IncidentAxdSlit"
*MEAS_COND_AXIS_NAME_INTERNAL-16 "CenterSlit"
*MEAS_COND_AXIS_NAME_INTERNAL-17 "Filter"
*MEAS_COND_AXIS_NAME_INTERNAL-18 "ReceivingSlitBox1"
*MEAS_COND_AXIS_NAME_INTERNAL-19 "ReceivingSlitBox2"
*MEAS_COND_AXIS_NAME_INTERNAL-20 "ReceivingOptics"
*MEAS_COND_AXIS_NAME_INTERNAL-21 "ReceivingSollerSlit"
*MEAS_COND_AXIS_NAME_INTERNAL-22 "ReceivingAxdSlit"
*MEAS_COND_AXIS_NAME_INTERNAL-23 "ReceivingSlitBox1-_Axis"
*MEAS_COND_AXIS_NAME_INTERNAL-24 "ReceivingSlitBox2-_Axis"
*MEAS_COND_AXIS_NAME_INTERNAL-25 "ReceivingSlitBox2-Zd"
*MEAS_COND_AXIS_NAME_INTERNAL-26 "Attenuator"
*MEAS_COND_AXIS_NAME_INTERNAL-27 "CounterMonochromator"
*MEAS_COND_AXIS_NAME_INTERNAL-28 "CounterSlit"
*MEAS_COND_AXIS_NAME_INTERNAL-29 "IncidentPrimary"
*MEAS_COND_AXIS_NAME_INTERNAL-30 "PHA"
*MEAS_COND_AXIS_NAME_MAGICNO-0 "83951616.0000000000"
*MEAS_COND_AXIS_NAME_MAGICNO-1 "268632064.0000000000"
*MEAS_COND_AXIS_NAME_MAGICNO-2 "268500992.0000000000"
*MEAS_COND_AXIS_NAME_MAGICNO-3 "285278208.0000000000"
*MEAS_COND_AXIS_NAME_MAGICNO-4 "83951616.0000000000"
*MEAS_COND_AXIS_NAME_MAGICNO-5 "131072.0000000000"
*MEAS_COND_AXIS_NAME_MAGICNO-6 "131072.0000000000"
*MEAS_COND_AXIS_NAME_MAGICNO-7 "318898176.0000000000"
*MEAS_COND_AXIS_NAME_MAGICNO-8 "20971521.0000000000"
*MEAS_COND_AXIS_NAME_MAGICNO-9 "285343744.0000000000"
*MEAS_COND_AXIS_NAME_MAGICNO-10 "20971521.0000000000"
*MEAS_COND_AXIS_NAME_MAGICNO-11 "22020097.0000000000"
*MEAS_COND_AXIS_NAME_MAGICNO-12 "25165824.0000000000"
*MEAS_COND_AXIS_NAME_MAGICNO-13 "318898176.0000000000"
*MEAS_COND_AXIS_NAME_MAGICNO-14 "1.0000000000"
*MEAS_COND_AXIS_NAME_MAGICNO-15 "20971521.0000000000"
*MEAS_COND_AXIS_NAME_MAGICNO-16 "20971521.0000000000"
*MEAS_COND_AXIS_NAME_MAGICNO-17 "20971521.0000000000"
*MEAS_COND_AXIS_NAME_MAGICNO-18 "23068673.0000000000"
*MEAS_COND_AXIS_NAME_MAGICNO-19 "23068673.0000000000"
*MEAS_COND_AXIS_NAME_MAGICNO-20 "20971521.0000000000"
*MEAS_COND_AXIS_NAME_MAGICNO-21 "20971521.0000000000"
*MEAS_COND_AXIS_NAME_MAGICNO-22 "20971521.0000000000"
*MEAS_COND_AXIS_NAME_MAGICNO-23 "25165824.0000000000"
*MEAS_COND_AXIS_NAME_MAGICNO-24 "25165824.0000000000"
*MEAS_COND_AXIS_NAME_MAGICNO-25 "285343744.0000000000"
*MEAS_COND_AXIS_NAME_MAGICNO-26 "17301505.0000000000"
*MEAS_COND_AXIS_NAME_MAGICNO-27 "20971521.0000000000"
*MEAS_COND_AXIS_NAME_MAGICNO-28 "20971521.0000000000"
*MEAS_COND_AXIS_NAME_MAGICNO-29 "20971521.0000000000"
*MEAS_COND_AXIS_NAME_MAGICNO-30 "0.0000000000"
*MEAS_COND_AXIS_OFFSET-0 "-"
*MEAS_COND_AXIS_OFFSET-1 "-0.0310000000"
*MEAS_COND_AXIS_OFFSET-2 "0.3978000000"
*MEAS_COND_AXIS_OFFSET-3 "-"
*MEAS_COND_AXIS_OFFSET-4 "-"
*MEAS_COND_AXIS_OFFSET-5 "0.3978000000"
*MEAS_COND_AXIS_OFFSET-6 "-0.4288000000"
*MEAS_COND_AXIS_OFFSET-7 "-"
*MEAS_COND_AXIS_OFFSET-8 "-"
*MEAS_COND_AXIS_OFFSET-9 "-"
*MEAS_COND_AXIS_OFFSET-10 "-"
*MEAS_COND_AXIS_OFFSET-11 "-"
*MEAS_COND_AXIS_OFFSET-12 "-"
*MEAS_COND_AXIS_OFFSET-13 "-"
*MEAS_COND_AXIS_OFFSET-14 "-"
*MEAS_COND_AXIS_OFFSET-15 "-"
*MEAS_COND_AXIS_OFFSET-16 "-"
*MEAS_COND_AXIS_OFFSET-17 "-"
*MEAS_COND_AXIS_OFFSET-18 "-"
*MEAS_COND_AXIS_OFFSET-19 "-"
*MEAS_COND_AXIS_OFFSET-20 "-"
*MEAS_COND_AXIS_OFFSET-21 "-"
*MEAS_COND_AXIS_OFFSET-22 "-"
*MEAS_COND_AXIS_OFFSET-23 "-"
*MEAS_COND_AXIS_OFFSET-24 "-"
*MEAS_COND_AXIS_OFFSET-25 "-"
*MEAS_COND_AXIS_OFFSET-26 "-"
*MEAS_COND_AXIS_OFFSET-27 "-"
*MEAS_COND_AXIS_OFFSET-28 "-"
*MEAS_COND_AXIS_OFFSET-29 "-"
*MEAS_COND_AXIS_OFFSET-30 "-"
*MEAS_COND_AXIS_POSITION-0 "0.0000000000"
*MEAS_COND_AXIS_POSITION-1 "0.0000000000"
*MEAS_COND_AXIS_POSITION-2 "0.0000000000"
*MEAS_COND_AXIS_POSITION-3 "-2.9770000000"
*MEAS_COND_AXIS_POSITION-4 "0.0000000000"
*MEAS_COND_AXIS_POSITION-5 "0.0000000000"
*MEAS_COND_AXIS_POSITION-6 "0.0000000000"
*MEAS_COND_AXIS_POSITION-7 "-0.7498700000"
*MEAS_COND_AXIS_POSITION-8 "BB"
*MEAS_COND_AXIS_POSITION-9 "0.0000000000"
*MEAS_COND_AXIS_POSITION-10 "Soller_slit_5.0deg"
*MEAS_COND_AXIS_POSITION-11 "2/3deg"
*MEAS_COND_AXIS_POSITION-12 "2.2088000000"
*MEAS_COND_AXIS_POSITION-13 "-0.6412500000"
*MEAS_COND_AXIS_POSITION-14 "0.0000000000"
*MEAS_COND_AXIS_POSITION-15 "10.0mm"
*MEAS_COND_AXIS_POSITION-16 "None"
*MEAS_COND_AXIS_POSITION-17 "Cu_K-beta"
*MEAS_COND_AXIS_POSITION-18 "13.000mm"
*MEAS_COND_AXIS_POSITION-19 "13.000mm"
*MEAS_COND_AXIS_POSITION-20 "No_unit"
*MEAS_COND_AXIS_POSITION-21 "Soller_slit_5.0deg"
*MEAS_COND_AXIS_POSITION-22 "None"
*MEAS_COND_AXIS_POSITION-23 "13.0000000000"
*MEAS_COND_AXIS_POSITION-24 "13.0000000000"
*MEAS_COND_AXIS_POSITION-25 "0.0281300000"
*MEAS_COND_AXIS_POSITION-26 "Open"
*MEAS_COND_AXIS_POSITION-27 "None"
*MEAS_COND_AXIS_POSITION-28 "None"
*MEAS_COND_AXIS_POSITION-29 "None"
*MEAS_COND_AXIS_POSITION-30 "38.0000000000"
*MEAS_COND_AXIS_UNIT-0 "deg"
*MEAS_COND_AXIS_UNIT-1 "deg"
*MEAS_COND_AXIS_UNIT-2 "deg"
*MEAS_COND_AXIS_UNIT-3 "mm"
*MEAS_COND_AXIS_UNIT-4 "deg"
*MEAS_COND_AXIS_UNIT-5 "deg"
*MEAS_COND_AXIS_UNIT-6 "deg"
*MEAS_COND_AXIS_UNIT-7 "mm"
*MEAS_COND_AXIS_UNIT-8 ""
*MEAS_COND_AXIS_UNIT-9 "pulse"
*MEAS_COND_AXIS_UNIT-10 ""
*MEAS_COND_AXIS_UNIT-11 ""
*MEAS_COND_AXIS_UNIT-12 "mm"
*MEAS_COND_AXIS_UNIT-13 "mm"
*MEAS_COND_AXIS_UNIT-14 ""
*MEAS_COND_AXIS_UNIT-15 ""
*MEAS_COND_AXIS_UNIT-16 ""
*MEAS_COND_AXIS_UNIT-17 ""
*MEAS_COND_AXIS_UNIT-18 ""
*MEAS_COND_AXIS_UNIT-19 ""
*MEAS_COND_AXIS_UNIT-20 ""
*MEAS_COND_AXIS_UNIT-21 ""
*MEAS_COND_AXIS_UNIT-22 ""
*MEAS_COND_AXIS_UNIT-23 "mm"
*MEAS_COND_AXIS_UNIT-24 "mm"
*MEAS_COND_AXIS_UNIT-25 "mm"
*MEAS_COND_AXIS_UNIT-26 ""
*MEAS_COND_AXIS_UNIT-27 ""
*MEAS_COND_AXIS_UNIT-28 ""
*MEAS_COND_AXIS_UNIT-29 ""
*MEAS_COND_AXIS_UNIT-30 "div"
*MEAS_COND_COUNTER_CNTLOSS_CORR "0.0000000000"
*MEAS_COND_COUNTER_PHABASE "38.0000000000"
*MEAS_COND_COUNTER_PHAWINDOW "16.0000000000"
*MEAS_COND_COUNTER_PHA_UNIT "div"
*MEAS_COND_COUNTER_TAUDIFF "30.0000000000"
*MEAS_COND_COUNTER_TAUINT "0.0000000000"
*MEAS_COND_IRRADIATION_MODE "OFF"
*MEAS_COND_IRRADIATION_WIDTH ""
*MEAS_COND_OPT_ATTR "集中法"
*MEAS_COND_OPT_NAME "@集中法"
*MEAS_COND_UNSYMMETRIC_MODE "OFF"
*MEAS_COND_XG_CURRENT "30.0000000000"
*MEAS_COND_XG_VOLTAGE "40.0000000000"
*MEAS_COND_XG_WAVE_TYPE "Ka"
*MEAS_DATA_COUNT "5001.0000000000"
*MEAS_SCAN_AXIS_X "2θ/θ"
*MEAS_SCAN_AXIS_X_INTERNAL "TwoThetaTheta"
*MEAS_SCAN_END_TIME "05/18/23 20:54:47"
*MEAS_SCAN_MODE "CONTINUOUS"
*MEAS_SCAN_MONITOR "0"
*MEAS_SCAN_RESOLUTION_X "0.0002"
*MEAS_SCAN_SPEED "2.5"
*MEAS_SCAN_SPEED_UNIT "deg/min"
*MEAS_SCAN_START "20.0000000000"
*MEAS_SCAN_START_TIME "05/18/23 20:33:22"
*MEAS_SCAN_STEP "0.0100000000"
*MEAS_SCAN_STOP "70.0000000000"
*MEAS_SCAN_UNIT_X "deg"
*MEAS_SCAN_UNIT_Y "counts"
*RAS_HEADER_END
*RAS_INT_START
20.0000 795.0000 1.0000
20.0100 854.0000 1.0000
20.0200 888.0000 1.0000
20.0300 850.0000 1.0000
20.0400 870.0000 1.0000
20.0500 786.0000 1.0000
20.0600 830.0000 1.0000
20.0700 838.0000 1.0000
20.0800 863.0000 1.0000
20.0900 877.0000 1.0000
20.1000 835.0000 1.0000
20.1100 839.0000 1.0000
20.1200 818.0000 1.0000
20.1300 825.0000 1.0000
20.1400 873.0000 1.0000
20.1500 850.0000 1.0000
20.1600 862.0000 1.0000
20.1700 817.0000 1.0000
20.1800 838.0000 1.0000
20.1900 825.0000 1.0000
20.2000 806.0000 1.0000
20.2100 867.0000 1.0000
20.2200 828.0000 1.0000
20.2300 853.0000 1.0000
20.2400 868.0000 1.0000
20.2500 908.0000 1.0000
20.2600 858.0000 1.0000
20.2700 782.0000 1.0000
20.2800 871.0000 1.0000
20.2900 828.0000 1.0000
20.3000 819.0000 1.0000
20.3100 827.0000 1.0000
20.3200 858.0000 1.0000
20.3300 851.0000 1.0000
20.3400 799.0000 1.0000
20.3500 822.0000 1.0000
20.3600 807.0000 1.0000
20.3700 810.0000 1.0000
20.3800 847.0000 1.0000
20.3900 840.0000 1.0000
20.4000 841.0000 1.0000
20.4100 851.0000 1.0000
20.4200 817.0000 1.0000
20.4300 824.0000 1.0000
20.4400 819.0000 1.0000
20.4500 865.0000 1.0000
20.4600 796.0000 1.0000
20.4700 830.0000 1.0000
20.4800 790.0000 1.0000
20.4900 808.0000 1.0000
20.5000 819.0000 1.0000
20.5100 811.0000 1.0000
20.5200 850.0000 1.0000
20.5300 816.0000 1.0000
20.5400 856.0000 1.0000
20.5500 802.0000 1.0000
20.5600 863.0000 1.0000
20.5700 806.0000 1.0000
20.5800 831.0000 1.0000
20.5900 834.0000 1.0000
20.6000 831.0000 1.0000
20.6100 782.0000 1.0000
20.6200 779.0000 1.0000
20.6300 831.0000 1.0000
20.6400 799.0000 1.0000
20.6500 811.0000 1.0000
20.6600 861.0000 1.0000
20.6700 841.0000 1.0000
20.6800 854.0000 1.0000
20.6900 854.0000 1.0000
20.7000 830.0000 1.0000
20.7100 847.0000 1.0000
20.7200 810.0000 1.0000
20.7300 867.0000 1.0000
20.7400 812.0000 1.0000
20.7500 845.0000 1.0000
20.7600 844.0000 1.0000
20.7700 855.0000 1.0000
20.7800 833.0000 1.0000
20.7900 813.0000 1.0000
20.8000 837.0000 1.0000
20.8100 825.0000 1.0000
20.8200 837.0000 1.0000
20.8300 806.0000 1.0000
20.8400 820.0000 1.0000
20.8500 789.0000 1.0000
20.8600 843.0000 1.0000
20.8700 848.0000 1.0000
20.8800 811.0000 1.0000
20.8900 804.0000 1.0000
20.9000 833.0000 1.0000
20.9100 820.0000 1.0000
20.9200 839.0000 1.0000
20.9300 836.0000 1.0000
20.9400 916.0000 1.0000
20.9500 798.0000 1.0000
20.9600 821.0000 1.0000
20.9700 816.0000 1.0000
20.9800 843.0000 1.0000
20.9900 828.0000 1.0000
21.0000 856.0000 1.0000
21.0100 850.0000 1.0000
21.0200 796.0000 1.0000
21.0300 811.0000 1.0000
21.0400 801.0000 1.0000
21.0500 901.0000 1.0000
21.0600 839.0000 1.0000
21.0700 808.0000 1.0000
21.0800 816.0000 1.0000
21.0900 841.0000 1.0000
21.1000 823.0000 1.0000
21.1100 837.0000 1.0000
21.1200 806.0000 1.0000
21.1300 821.0000 1.0000
21.1400 850.0000 1.0000
21.1500 821.0000 1.0000
21.1600 805.0000 1.0000
21.1700 837.0000 1.0000
21.1800 822.0000 1.0000
21.1900 859.0000 1.0000
21.2000 839.0000 1.0000
21.2100 794.0000 1.0000
21.2200 843.0000 1.0000
21.2300 837.0000 1.0000
21.2400 847.0000 1.0000
21.2500 792.0000 1.0000
21.2600 815.0000 1.0000
21.2700 835.0000 1.0000
21.2800 821.0000 1.0000
21.2900 841.0000 1.0000
21.3000 786.0000 1.0000
21.3100 795.0000 1.0000
21.3200 833.0000 1.0000
21.3300 861.0000 1.0000
21.3400 841.0000 1.0000
21.3500 844.0000 1.0000
21.3600 806.0000 1.0000
21.3700 840.0000 1.0000
21.3800 856.0000 1.0000
21.3900 798.0000 1.0000
21.4000 821.0000 1.0000
21.4100 841.0000 1.0000
21.4200 790.0000 1.0000
21.4300 832.0000 1.0000
21.4400 803.0000 1.0000
21.4500 783.0000 1.0000
21.4600 825.0000 1.0000
21.4700 828.0000 1.0000
21.4800 828.0000 1.0000
21.4900 807.0000 1.0000
21.5000 817.0000 1.0000
21.5100 822.0000 1.0000
21.5200 766.0000 1.0000
21.5300 843.0000 1.0000
21.5400 841.0000 1.0000
21.5500 796.0000 1.0000
21.5600 778.0000 1.0000
21.5700 797.0000 1.0000
21.5800 790.0000 1.0000
21.5900 800.0000 1.0000
21.6000 855.0000 1.0000
21.6100 822.0000 1.0000
21.6200 807.0000 1.0000
21.6300 854.0000 1.0000
21.6400 833.0000 1.0000
21.6500 855.0000 1.0000
21.6600 828.0000 1.0000
21.6700 827.0000 1.0000
21.6800 802.0000 1.0000
21.6900 805.0000 1.0000
21.7000 819.0000 1.0000
21.7100 806.0000 1.0000
21.7200 789.0000 1.0000
21.7300 783.0000 1.0000
21.7400 814.0000 1.0000
21.7500 816.0000 1.0000
21.7600 824.0000 1.0000
21.7700 827.0000 1.0000
21.7800 846.0000 1.0000
21.7900 855.0000 1.0000
21.8000 819.0000 1.0000
21.8100 764.0000 1.0000
21.8200 805.0000 1.0000
21.8300 763.0000 1.0000
21.8400 795.0000 1.0000
21.8500 799.0000 1.0000
21.8600 808.0000 1.0000
21.8700 789.0000 1.0000
21.8800 798.0000 1.0000
21.8900 861.0000 1.0000
21.9000 833.0000 1.0000
21.9100 789.0000 1.0000
21.9200 868.0000 1.0000
21.9300 857.0000 1.0000
21.9400 817.0000 1.0000
21.9500 852.0000 1.0000
21.9600 819.0000 1.0000
21.9700 819.0000 1.0000
21.9800 833.0000 1.0000
21.9900 860.0000 1.0000
22.0000 824.0000 1.0000
22.0100 838.0000 1.0000
22.0200 872.0000 1.0000
22.0300 828.0000 1.0000
22.0400 813.0000 1.0000
22.0500 747.0000 1.0000
22.0600 808.0000 1.0000
22.0700 769.0000 1.0000
22.0800 805.0000 1.0000
22.0900 803.0000 1.0000
22.1000 779.0000 1.0000
22.1100 824.0000 1.0000
22.1200 821.0000 1.0000
22.1300 824.0000 1.0000
22.1400 793.0000 1.0000
22.1500 776.0000 1.0000
22.1600 812.0000 1.0000
22.1700 837.0000 1.0000
22.1800 828.0000 1.0000
22.1900 798.0000 1.0000
22.2000 794.0000 1.0000
22.2100 812.0000 1.0000
22.2200 851.0000 1.0000
22.2300 803.0000 1.0000
22.2400 795.0000 1.0000
22.2500 782.0000 1.0000
22.2600 782.0000 1.0000
22.2700 783.0000 1.0000
22.2800 772.0000 1.0000
22.2900 828.0000 1.0000
22.3000 852.0000 1.0000
22.3100 767.0000 1.0000
22.3200 817.0000 1.0000
22.3300 838.0000 1.0000
22.3400 848.0000 1.0000
22.3500 789.0000 1.0000
22.3600 861.0000 1.0000
22.3700 814.0000 1.0000
22.3800 835.0000 1.0000
22.3900 789.0000 1.0000
22.4000 796.0000 1.0000
22.4100 798.0000 1.0000
22.4200 822.0000 1.0000
22.4300 834.0000 1.0000
22.4400 755.0000 1.0000
22.4500 747.0000 1.0000
22.4600 826.0000 1.0000
22.4700 853.0000 1.0000
22.4800 784.0000 1.0000
22.4900 803.0000 1.0000
22.5000 802.0000 1.0000
22.5100 802.0000 1.0000
22.5200 801.0000 1.0000
22.5300 787.0000 1.0000
22.5400 778.0000 1.0000
22.5500 817.0000 1.0000
22.5600 821.0000 1.0000
22.5700 824.0000 1.0000
22.5800 835.0000 1.0000
22.5900 839.0000 1.0000
22.6000 811.0000 1.0000
22.6100 821.0000 1.0000
22.6200 826.0000 1.0000
22.6300 815.0000 1.0000
22.6400 812.0000 1.0000
22.6500 797.0000 1.0000
22.6600 767.0000 1.0000
22.6700 777.0000 1.0000
22.6800 820.0000 1.0000
22.6900 789.0000 1.0000
22.7000 798.0000 1.0000
22.7100 817.0000 1.0000
22.7200 818.0000 1.0000
22.7300 841.0000 1.0000
22.7400 821.0000 1.0000
22.7500 829.0000 1.0000
22.7600 819.0000 1.0000
22.7700 851.0000 1.0000
22.7800 778.0000 1.0000
22.7900 807.0000 1.0000
22.8000 819.0000 1.0000
22.8100 821.0000 1.0000
22.8200 824.0000 1.0000
22.8300 787.0000 1.0000
22.8400 819.0000 1.0000
22.8500 833.0000 1.0000
22.8600 813.0000 1.0000
22.8700 836.0000 1.0000
22.8800 772.0000 1.0000
22.8900 761.0000 1.0000
22.9000 789.0000 1.0000
22.9100 799.0000 1.0000
22.9200 801.0000 1.0000
22.9300 761.0000 1.0000
22.9400 791.0000 1.0000
22.9500 831.0000 1.0000
22.9600 817.0000 1.0000
22.9700 835.0000 1.0000
22.9800 802.0000 1.0000
22.9900 839.0000 1.0000
23.0000 790.0000 1.0000
23.0100 787.0000 1.0000
23.0200 785.0000 1.0000
23.0300 805.0000 1.0000
23.0400 815.0000 1.0000
23.0500 776.0000 1.0000
23.0600 814.0000 1.0000
23.0700 777.0000 1.0000
23.0800 783.0000 1.0000
23.0900 789.0000 1.0000
23.1000 819.0000 1.0000
23.1100 823.0000 1.0000
23.1200 773.0000 1.0000
23.1300 791.0000 1.0000
23.1400 811.0000 1.0000
23.1500 821.0000 1.0000
23.1600 769.0000 1.0000
23.1700 744.0000 1.0000
23.1800 798.0000 1.0000
23.1900 763.0000 1.0000
23.2000 789.0000 1.0000
23.2100 797.0000 1.0000
23.2200 829.0000 1.0000
23.2300 831.0000 1.0000
23.2400 793.0000 1.0000
23.2500 761.0000 1.0000
23.2600 797.0000 1.0000
23.2700 859.0000 1.0000
23.2800 794.0000 1.0000
23.2900 768.0000 1.0000
23.3000 742.0000 1.0000
23.3100 793.0000 1.0000
23.3200 792.0000 1.0000
23.3300 799.0000 1.0000
23.3400 744.0000 1.0000
23.3500 792.0000 1.0000
23.3600 837.0000 1.0000
23.3700 860.0000 1.0000
23.3800 773.0000 1.0000
23.3900 787.0000 1.0000
23.4000 768.0000 1.0000
23.4100 786.0000 1.0000
23.4200 750.0000 1.0000
23.4300 794.0000 1.0000
23.4400 849.0000 1.0000
23.4500 769.0000 1.0000
23.4600 796.0000 1.0000
23.4700 805.0000 1.0000
23.4800 791.0000 1.0000
23.4900 804.0000 1.0000
23.5000 801.0000 1.0000
23.5100 786.0000 1.0000
23.5200 817.0000 1.0000
23.5300 773.0000 1.0000
23.5400 798.0000 1.0000
23.5500 815.0000 1.0000
23.5600 781.0000 1.0000
23.5700 780.0000 1.0000
23.5800 797.0000 1.0000
23.5900 785.0000 1.0000
23.6000 775.0000 1.0000
23.6100 777.0000 1.0000
23.6200 842.0000 1.0000
23.6300 805.0000 1.0000
23.6400 770.0000 1.0000
23.6500 812.0000 1.0000
23.6600 758.0000 1.0000
23.6700 802.0000 1.0000
23.6800 817.0000 1.0000
23.6900 778.0000 1.0000
23.7000 805.0000 1.0000
23.7100 781.0000 1.0000
23.7200 787.0000 1.0000
23.7300 788.0000 1.0000
23.7400 809.0000 1.0000
23.7500 823.0000 1.0000
23.7600 801.0000 1.0000
23.7700 823.0000 1.0000
23.7800 815.0000 1.0000
23.7900 781.0000 1.0000
23.8000 831.0000 1.0000
23.8100 803.0000 1.0000
23.8200 796.0000 1.0000
23.8300 818.0000 1.0000
23.8400 802.0000 1.0000
23.8500 818.0000 1.0000
23.8600 784.0000 1.0000
23.8700 829.0000 1.0000
23.8800 792.0000 1.0000
23.8900 792.0000 1.0000
23.9000 875.0000 1.0000
23.9100 800.0000 1.0000
23.9200 743.0000 1.0000
23.9300 770.0000 1.0000
23.9400 824.0000 1.0000
23.9500 769.0000 1.0000
23.9600 822.0000 1.0000
23.9700 794.0000 1.0000
23.9800 800.0000 1.0000
23.9900 799.0000 1.0000
24.0000 799.0000 1.0000
24.0100 840.0000 1.0000
24.0200 869.0000 1.0000
24.0300 823.0000 1.0000
24.0400 829.0000 1.0000
24.0500 868.0000 1.0000
24.0600 869.0000 1.0000
24.0700 877.0000 1.0000
24.0800 799.0000 1.0000
24.0900 895.0000 1.0000
24.1000 854.0000 1.0000
24.1100 854.0000 1.0000
24.1200 852.0000 1.0000
24.1300 855.0000 1.0000
24.1400 815.0000 1.0000
24.1500 824.0000 1.0000
24.1600 796.0000 1.0000
24.1700 844.0000 1.0000
24.1800 798.0000 1.0000
24.1900 786.0000 1.0000
24.2000 796.0000 1.0000
24.2100 824.0000 1.0000
24.2200 799.0000 1.0000
24.2300 761.0000 1.0000
24.2400 760.0000 1.0000
24.2500 794.0000 1.0000
24.2600 848.0000 1.0000
24.2700 787.0000 1.0000
24.2800 788.0000 1.0000
24.2900 788.0000 1.0000
24.3000 765.0000 1.0000
24.3100 756.0000 1.0000
24.3200 793.0000 1.0000
24.3300 775.0000 1.0000
24.3400 765.0000 1.0000
24.3500 761.0000 1.0000
24.3600 799.0000 1.0000
24.3700 793.0000 1.0000
24.3800 835.0000 1.0000
24.3900 813.0000 1.0000
24.4000 787.0000 1.0000
24.4100 763.0000 1.0000
24.4200 828.0000 1.0000
24.4300 824.0000 1.0000
24.4400 798.0000 1.0000
24.4500 774.0000 1.0000
24.4600 804.0000 1.0000
24.4700 762.0000 1.0000
24.4800 804.0000 1.0000
24.4900 786.0000 1.0000
24.5000 762.0000 1.0000
24.5100 778.0000 1.0000
24.5200 767.0000 1.0000
24.5300 774.0000 1.0000
24.5400 791.0000 1.0000
24.5500 755.0000 1.0000
24.5600 757.0000 1.0000
24.5700 734.0000 1.0000
24.5800 773.0000 1.0000
24.5900 793.0000 1.0000
24.6000 795.0000 1.0000
24.6100 763.0000 1.0000
24.6200 751.0000 1.0000
24.6300 769.0000 1.0000
24.6400 814.0000 1.0000
24.6500 809.0000 1.0000
24.6600 757.0000 1.0000
24.6700 787.0000 1.0000
24.6800 821.0000 1.0000
24.6900 710.0000 1.0000
24.7000 762.0000 1.0000
24.7100 795.0000 1.0000
24.7200 788.0000 1.0000
24.7300 762.0000 1.0000
24.7400 765.0000 1.0000
24.7500 817.0000 1.0000
24.7600 741.0000 1.0000
24.7700 739.0000 1.0000
24.7800 738.0000 1.0000
24.7900 799.0000 1.0000
24.8000 757.0000 1.0000
24.8100 785.0000 1.0000
24.8200 778.0000 1.0000
24.8300 741.0000 1.0000
24.8400 818.0000 1.0000
24.8500 781.0000 1.0000
24.8600 820.0000 1.0000
24.8700 744.0000 1.0000
24.8800 771.0000 1.0000
24.8900 729.0000 1.0000
24.9000 726.0000 1.0000
24.9100 764.0000 1.0000
24.9200 779.0000 1.0000
24.9300 786.0000 1.0000
24.9400 790.0000 1.0000
24.9500 754.0000 1.0000
24.9600 783.0000 1.0000
24.9700 792.0000 1.0000
24.9800 750.0000 1.0000
24.9900 785.0000 1.0000
25.0000 790.0000 1.0000
25.0100 735.0000 1.0000
25.0200 784.0000 1.0000
25.0300 838.0000 1.0000
25.0400 732.0000 1.0000
25.0500 774.0000 1.0000
25.0600 789.0000 1.0000
25.0700 766.0000 1.0000
25.0800 746.0000 1.0000
25.0900 767.0000 1.0000
25.1000 745.0000 1.0000
25.1100 780.0000 1.0000
25.1200 784.0000 1.0000
25.1300 767.0000 1.0000
25.1400 765.0000 1.0000
25.1500 747.0000 1.0000
25.1600 770.0000 1.0000
25.1700 783.0000 1.0000
25.1800 798.0000 1.0000
25.1900 805.0000 1.0000
25.2000 768.0000 1.0000
25.2100 764.0000 1.0000
25.2200 823.0000 1.0000
25.2300 752.0000 1.0000
25.2400 721.0000 1.0000
25.2500 769.0000 1.0000
25.2600 777.0000 1.0000
25.2700 796.0000 1.0000
25.2800 776.0000 1.0000
25.2900 769.0000 1.0000
25.3000 773.0000 1.0000
25.3100 727.0000 1.0000
25.3200 804.0000 1.0000
25.3300 782.0000 1.0000
25.3400 739.0000 1.0000
25.3500 754.0000 1.0000
25.3600 793.0000 1.0000
25.3700 798.0000 1.0000
25.3800 785.0000 1.0000
25.3900 741.0000 1.0000
25.4000 795.0000 1.0000
25.4100 751.0000 1.0000
25.4200 741.0000 1.0000
25.4300 740.0000 1.0000
25.4400 774.0000 1.0000
25.4500 766.0000 1.0000
25.4600 775.0000 1.0000
25.4700 734.0000 1.0000
25.4800 774.0000 1.0000
25.4900 760.0000 1.0000
25.5000 794.0000 1.0000
25.5100 810.0000 1.0000
25.5200 763.0000 1.0000
25.5300 772.0000 1.0000
25.5400 753.0000 1.0000
25.5500 740.0000 1.0000
25.5600 790.0000 1.0000
25.5700 808.0000 1.0000
25.5800 773.0000 1.0000
25.5900 769.0000 1.0000
25.6000 809.0000 1.0000
25.6100 788.0000 1.0000
25.6200 775.0000 1.0000
25.6300 821.0000 1.0000
25.6400 849.0000 1.0000
25.6500 791.0000 1.0000
25.6600 773.0000 1.0000
25.6700 836.0000 1.0000
25.6800 767.0000 1.0000
25.6900 798.0000 1.0000
25.7000 787.0000 1.0000
25.7100 753.0000 1.0000
25.7200 791.0000 1.0000
25.7300 796.0000 1.0000
25.7400 790.0000 1.0000
25.7500 763.0000 1.0000
25.7600 775.0000 1.0000
25.7700 809.0000 1.0000
25.7800 770.0000 1.0000
25.7900 814.0000 1.0000
25.8000 772.0000 1.0000
25.8100 778.0000 1.0000
25.8200 807.0000 1.0000
25.8300 838.0000 1.0000
25.8400 790.0000 1.0000
25.8500 791.0000 1.0000
25.8600 792.0000 1.0000
25.8700 810.0000 1.0000
25.8800 800.0000 1.0000
25.8900 860.0000 1.0000
25.9000 823.0000 1.0000
25.9100 796.0000 1.0000
25.9200 825.0000 1.0000
25.9300 824.0000 1.0000
25.9400 808.0000 1.0000
25.9500 805.0000 1.0000
25.9600 843.0000 1.0000
25.9700 843.0000 1.0000
25.9800 818.0000 1.0000
25.9900 773.0000 1.0000
26.0000 829.0000 1.0000
26.0100 863.0000 1.0000
26.0200 844.0000 1.0000
26.0300 842.0000 1.0000
26.0400 852.0000 1.0000
26.0500 899.0000 1.0000
26.0600 902.0000 1.0000
26.0700 914.0000 1.0000
26.0800 896.0000 1.0000
26.0900 913.0000 1.0000
26.1000 943.0000 1.0000
26.1100 915.0000 1.0000
26.1200 914.0000 1.0000
26.1300 989.0000 1.0000
26.1400 1004.0000 1.0000
26.1500 1015.0000 1.0000
26.1600 1102.0000 1.0000
26.1700 1082.0000 1.0000
26.1800 1026.0000 1.0000
26.1900 1058.0000 1.0000
26.2000 1148.0000 1.0000
26.2100 1186.0000 1.0000
26.2200 1195.0000 1.0000
26.2300 1292.0000 1.0000
26.2400 1254.0000 1.0000
26.2500 1294.0000 1.0000
26.2600 1340.0000 1.0000
26.2700 1414.0000 1.0000
26.2800 1411.0000 1.0000
26.2900 1504.0000 1.0000
26.3000 1546.0000 1.0000
26.3100 1628.0000 1.0000
26.3200 1753.0000 1.0000
26.3300 1873.0000 1.0000
26.3400 1982.0000 1.0000
26.3500 2085.0000 1.0000
26.3600 2209.0000 1.0000
26.3700 2347.0000 1.0000
26.3800 2440.0000 1.0000
26.3900 2565.0000 1.0000
26.4000 2676.0000 1.0000
26.4100 2812.0000 1.0000
26.4200 2739.0000 1.0000
26.4300 2876.0000 1.0000
26.4400 2860.0000 1.0000
26.4500 2868.0000 1.0000
26.4600 2764.0000 1.0000
26.4700 2788.0000 1.0000
26.4800 2703.0000 1.0000
26.4900 2570.0000 1.0000
26.5000 2430.0000 1.0000
26.5100 2382.0000 1.0000
26.5200 2250.0000 1.0000
26.5300 2104.0000 1.0000
26.5400 1987.0000 1.0000
26.5500 1909.0000 1.0000
26.5600 1802.0000 1.0000
26.5700 1747.0000 1.0000
26.5800 1678.0000 1.0000
26.5900 1595.0000 1.0000
26.6000 1447.0000 1.0000
26.6100 1334.0000 1.0000
26.6200 1360.0000 1.0000
26.6300 1309.0000 1.0000
26.6400 1216.0000 1.0000
26.6500 1206.0000 1.0000
26.6600 1166.0000 1.0000
26.6700 1117.0000 1.0000
26.6800 1127.0000 1.0000
26.6900 1047.0000 1.0000
26.7000 1026.0000 1.0000
26.7100 1021.0000 1.0000
26.7200 975.0000 1.0000
26.7300 978.0000 1.0000
26.7400 962.0000 1.0000
26.7500 904.0000 1.0000
26.7600 966.0000 1.0000
26.7700 921.0000 1.0000
26.7800 939.0000 1.0000
26.7900 871.0000 1.0000
26.8000 881.0000 1.0000
26.8100 890.0000 1.0000
26.8200 897.0000 1.0000
26.8300 852.0000 1.0000
26.8400 873.0000 1.0000
26.8500 850.0000 1.0000
26.8600 838.0000 1.0000
26.8700 903.0000 1.0000
26.8800 839.0000 1.0000
26.8900 804.0000 1.0000
26.9000 815.0000 1.0000
26.9100 823.0000 1.0000
26.9200 831.0000 1.0000
26.9300 802.0000 1.0000
26.9400 780.0000 1.0000
26.9500 769.0000 1.0000
26.9600 802.0000 1.0000
26.9700 795.0000 1.0000
26.9800 803.0000 1.0000
26.9900 789.0000 1.0000
27.0000 774.0000 1.0000
27.0100 747.0000 1.0000
27.0200 788.0000 1.0000
27.0300 767.0000 1.0000
27.0400 736.0000 1.0000
27.0500 775.0000 1.0000
27.0600 792.0000 1.0000
27.0700 787.0000 1.0000
27.0800 724.0000 1.0000
27.0900 740.0000 1.0000
27.1000 741.0000 1.0000
27.1100 722.0000 1.0000
27.1200 751.0000 1.0000
27.1300 751.0000 1.0000
27.1400 730.0000 1.0000
27.1500 802.0000 1.0000
27.1600 757.0000 1.0000
27.1700 764.0000 1.0000
27.1800 731.0000 1.0000
27.1900 703.0000 1.0000
27.2000 723.0000 1.0000
27.2100 770.0000 1.0000
27.2200 725.0000 1.0000
27.2300 722.0000 1.0000
27.2400 716.0000 1.0000
27.2500 700.0000 1.0000
27.2600 717.0000 1.0000
27.2700 760.0000 1.0000
27.2800 737.0000 1.0000
27.2900 716.0000 1.0000
27.3000 744.0000 1.0000
27.3100 722.0000 1.0000
27.3200 721.0000 1.0000
27.3300 696.0000 1.0000
27.3400 715.0000 1.0000
27.3500 708.0000 1.0000
27.3600 736.0000 1.0000
27.3700 743.0000 1.0000
27.3800 676.0000 1.0000
27.3900 703.0000 1.0000
27.4000 691.0000 1.0000
27.4100 709.0000 1.0000
27.4200 694.0000 1.0000
27.4300 725.0000 1.0000
27.4400 725.0000 1.0000
27.4500 737.0000 1.0000
27.4600 742.0000 1.0000
27.4700 778.0000 1.0000
27.4800 738.0000 1.0000
27.4900 702.0000 1.0000
27.5000 714.0000 1.0000
27.5100 691.0000 1.0000
27.5200 708.0000 1.0000
27.5300 701.0000 1.0000
27.5400 659.0000 1.0000
27.5500 706.0000 1.0000
27.5600 743.0000 1.0000
27.5700 710.0000 1.0000
27.5800 653.0000 1.0000
27.5900 712.0000 1.0000
27.6000 679.0000 1.0000
27.6100 703.0000 1.0000
27.6200 731.0000 1.0000
27.6300 699.0000 1.0000
27.6400 707.0000 1.0000
27.6500 668.0000 1.0000
27.6600 715.0000 1.0000
27.6700 692.0000 1.0000
27.6800 731.0000 1.0000
27.6900 683.0000 1.0000
27.7000 701.0000 1.0000
27.7100 704.0000 1.0000
27.7200 721.0000 1.0000
27.7300 675.0000 1.0000
27.7400 716.0000 1.0000
27.7500 698.0000 1.0000
27.7600 711.0000 1.0000
27.7700 680.0000 1.0000
27.7800 711.0000 1.0000
27.7900 671.0000 1.0000
27.8000 696.0000 1.0000
27.8100 681.0000 1.0000
27.8200 724.0000 1.0000
27.8300 688.0000 1.0000
27.8400 701.0000 1.0000
27.8500 695.0000 1.0000
27.8600 666.0000 1.0000
27.8700 719.0000 1.0000
27.8800 710.0000 1.0000
27.8900 699.0000 1.0000
27.9000 725.0000 1.0000
27.9100 709.0000 1.0000
27.9200 689.0000 1.0000
27.9300 718.0000 1.0000
27.9400 674.0000 1.0000
27.9500 724.0000 1.0000
27.9600 686.0000 1.0000
27.9700 701.0000 1.0000
27.9800 637.0000 1.0000
27.9900 651.0000 1.0000
28.0000 706.0000 1.0000
28.0100 714.0000 1.0000
28.0200 658.0000 1.0000
28.0300 685.0000 1.0000
28.0400 701.0000 1.0000
28.0500 603.0000 1.0000
28.0600 652.0000 1.0000
28.0700 676.0000 1.0000
28.0800 688.0000 1.0000
28.0900 655.0000 1.0000
28.1000 672.0000 1.0000
28.1100 682.0000 1.0000
28.1200 700.0000 1.0000
28.1300 721.0000 1.0000
28.1400 704.0000 1.0000
28.1500 692.0000 1.0000
28.1600 686.0000 1.0000
28.1700 659.0000 1.0000
28.1800 658.0000 1.0000
28.1900 653.0000 1.0000
28.2000 691.0000 1.0000
28.2100 662.0000 1.0000
28.2200 684.0000 1.0000
28.2300 663.0000 1.0000
28.2400 650.0000 1.0000
28.2500 689.0000 1.0000
28.2600 653.0000 1.0000
28.2700 682.0000 1.0000
28.2800 681.0000 1.0000
28.2900 675.0000 1.0000
28.3000 679.0000 1.0000
28.3100 681.0000 1.0000
28.3200 678.0000 1.0000
28.3300 668.0000 1.0000
28.3400 692.0000 1.0000
28.3500 648.0000 1.0000
28.3600 648.0000 1.0000
28.3700 663.0000 1.0000
28.3800 714.0000 1.0000
28.3900 700.0000 1.0000
28.4000 663.0000 1.0000
28.4100 639.0000 1.0000
28.4200 649.0000 1.0000
28.4300 663.0000 1.0000
28.4400 682.0000 1.0000
28.4500 683.0000 1.0000
28.4600 628.0000 1.0000
28.4700 668.0000 1.0000
28.4800 659.0000 1.0000
28.4900 632.0000 1.0000
28.5000 657.0000 1.0000
28.5100 698.0000 1.0000
28.5200 663.0000 1.0000
28.5300 677.0000 1.0000
28.5400 690.0000 1.0000
28.5500 694.0000 1.0000
28.5600 670.0000 1.0000
28.5700 682.0000 1.0000
28.5800 634.0000 1.0000
28.5900 654.0000 1.0000
28.6000 685.0000 1.0000
28.6100 670.0000 1.0000
28.6200 651.0000 1.0000
28.6300 682.0000 1.0000
28.6400 691.0000 1.0000
28.6500 650.0000 1.0000
28.6600 657.0000 1.0000
28.6700 666.0000 1.0000
28.6800 670.0000 1.0000
28.6900 620.0000 1.0000
28.7000 655.0000 1.0000
28.7100 654.0000 1.0000
28.7200 612.0000 1.0000
28.7300 659.0000 1.0000
28.7400 689.0000 1.0000
28.7500 652.0000 1.0000
28.7600 670.0000 1.0000
28.7700 678.0000 1.0000
28.7800 640.0000 1.0000
28.7900 644.0000 1.0000
28.8000 664.0000 1.0000
28.8100 654.0000 1.0000
28.8200 670.0000 1.0000
28.8300 645.0000 1.0000
28.8400 636.0000 1.0000
28.8500 655.0000 1.0000
28.8600 658.0000 1.0000
28.8700 652.0000 1.0000
28.8800 657.0000 1.0000
28.8900 634.0000 1.0000
28.9000 660.0000 1.0000
28.9100 673.0000 1.0000
28.9200 684.0000 1.0000
28.9300 633.0000 1.0000
28.9400 666.0000 1.0000
28.9500 653.0000 1.0000
28.9600 644.0000 1.0000
28.9700 667.0000 1.0000
28.9800 640.0000 1.0000
28.9900 616.0000 1.0000
29.0000 680.0000 1.0000
29.0100 679.0000 1.0000
29.0200 642.0000 1.0000
29.0300 678.0000 1.0000
29.0400 671.0000 1.0000
29.0500 628.0000 1.0000
29.0600 628.0000 1.0000
29.0700 613.0000 1.0000
29.0800 636.0000 1.0000
29.0900 619.0000 1.0000
29.1000 644.0000 1.0000
29.1100 623.0000 1.0000
29.1200 652.0000 1.0000
29.1300 655.0000 1.0000
29.1400 657.0000 1.0000
29.1500 646.0000 1.0000
29.1600 656.0000 1.0000
29.1700 628.0000 1.0000
29.1800 680.0000 1.0000
29.1900 641.0000 1.0000
29.2000 629.0000 1.0000
29.2100 624.0000 1.0000
29.2200 632.0000 1.0000
29.2300 654.0000 1.0000
29.2400 678.0000 1.0000
29.2500 666.0000 1.0000
29.2600 627.0000 1.0000
29.2700 665.0000 1.0000
29.2800 643.0000 1.0000
29.2900 654.0000 1.0000
29.3000 609.0000 1.0000
29.3100 628.0000 1.0000
29.3200 614.0000 1.0000
29.3300 641.0000 1.0000
29.3400 652.0000 1.0000
29.3500 652.0000 1.0000
29.3600 632.0000 1.0000
29.3700 607.0000 1.0000
29.3800 634.0000 1.0000
29.3900 620.0000 1.0000
29.4000 673.0000 1.0000
29.4100 624.0000 1.0000
29.4200 655.0000 1.0000
29.4300 642.0000 1.0000
29.4400 592.0000 1.0000
29.4500 651.0000 1.0000
29.4600 608.0000 1.0000
29.4700 586.0000 1.0000
29.4800 578.0000 1.0000
29.4900 644.0000 1.0000
29.5000 610.0000 1.0000
29.5100 605.0000 1.0000
29.5200 646.0000 1.0000
29.5300 636.0000 1.0000
29.5400 637.0000 1.0000
29.5500 635.0000 1.0000
29.5600 601.0000 1.0000
29.5700 639.0000 1.0000
29.5800 649.0000 1.0000
29.5900 629.0000 1.0000
29.6000 655.0000 1.0000
29.6100 622.0000 1.0000
29.6200 630.0000 1.0000
29.6300 620.0000 1.0000
29.6400 625.0000 1.0000
29.6500 608.0000 1.0000
29.6600 620.0000 1.0000
29.6700 616.0000 1.0000
29.6800 584.0000 1.0000
29.6900 585.0000 1.0000
29.7000 635.0000 1.0000
29.7100 600.0000 1.0000
29.7200 581.0000 1.0000
29.7300 618.0000 1.0000
29.7400 629.0000 1.0000
29.7500 612.0000 1.0000
29.7600 606.0000 1.0000
29.7700 610.0000 1.0000
29.7800 604.0000 1.0000
29.7900 606.0000 1.0000
29.8000 624.0000 1.0000
29.8100 595.0000 1.0000
29.8200 590.0000 1.0000
29.8300 612.0000 1.0000
29.8400 633.0000 1.0000
29.8500 609.0000 1.0000
29.8600 592.0000 1.0000
29.8700 618.0000 1.0000
29.8800 609.0000 1.0000
29.8900 633.0000 1.0000
29.9000 635.0000 1.0000
29.9100 633.0000 1.0000
29.9200 641.0000 1.0000
29.9300 617.0000 1.0000
29.9400 600.0000 1.0000
29.9500 647.0000 1.0000
29.9600 609.0000 1.0000
29.9700 613.0000 1.0000
29.9800 613.0000 1.0000
29.9900 615.0000 1.0000
30.0000 676.0000 1.0000
30.0100 644.0000 1.0000
30.0200 619.0000 1.0000
30.0300 623.0000 1.0000
30.0400 605.0000 1.0000
30.0500 627.0000 1.0000
30.0600 596.0000 1.0000
30.0700 625.0000 1.0000
30.0800 616.0000 1.0000
30.0900 626.0000 1.0000
30.1000 577.0000 1.0000
30.1100 609.0000 1.0000
30.1200 591.0000 1.0000
30.1300 605.0000 1.0000
30.1400 651.0000 1.0000
30.1500 579.0000 1.0000
30.1600 601.0000 1.0000
30.1700 603.0000 1.0000
30.1800 620.0000 1.0000
30.1900 626.0000 1.0000
30.2000 626.0000 1.0000
30.2100 593.0000 1.0000
30.2200 629.0000 1.0000
30.2300 593.0000 1.0000
30.2400 618.0000 1.0000
30.2500 587.0000 1.0000
30.2600 601.0000 1.0000
30.2700 639.0000 1.0000
30.2800 620.0000 1.0000
30.2900 590.0000 1.0000
30.3000 603.0000 1.0000
30.3100 642.0000 1.0000
30.3200 620.0000 1.0000
30.3300 599.0000 1.0000
30.3400 618.0000 1.0000
30.3500 590.0000 1.0000
30.3600 566.0000 1.0000
30.3700 599.0000 1.0000
30.3800 601.0000 1.0000
30.3900 642.0000 1.0000
30.4000 626.0000 1.0000
30.4100 623.0000 1.0000
30.4200 607.0000 1.0000
30.4300 599.0000 1.0000
30.4400 606.0000 1.0000
30.4500 604.0000 1.0000
30.4600 584.0000 1.0000
30.4700 590.0000 1.0000
30.4800 582.0000 1.0000
30.4900 598.0000 1.0000
30.5000 622.0000 1.0000
30.5100 594.0000 1.0000
30.5200 604.0000 1.0000
30.5300 631.0000 1.0000
30.5400 566.0000 1.0000
30.5500 616.0000 1.0000
30.5600 611.0000 1.0000
30.5700 590.0000 1.0000
30.5800 570.0000 1.0000
30.5900 546.0000 1.0000
30.6000 618.0000 1.0000
30.6100 624.0000 1.0000
30.6200 620.0000 1.0000
30.6300 615.0000 1.0000
30.6400 617.0000 1.0000
30.6500 630.0000 1.0000
30.6600 589.0000 1.0000
30.6700 602.0000 1.0000
30.6800 573.0000 1.0000
30.6900 561.0000 1.0000
30.7000 592.0000 1.0000
30.7100 552.0000 1.0000
30.7200 577.0000 1.0000
30.7300 575.0000 1.0000
30.7400 574.0000 1.0000
30.7500 589.0000 1.0000
30.7600 566.0000 1.0000
30.7700 604.0000 1.0000
30.7800 605.0000 1.0000
30.7900 580.0000 1.0000
30.8000 600.0000 1.0000
30.8100 563.0000 1.0000
30.8200 611.0000 1.0000
30.8300 604.0000 1.0000
30.8400 601.0000 1.0000
30.8500 601.0000 1.0000
30.8600 628.0000 1.0000
30.8700 612.0000 1.0000
30.8800 624.0000 1.0000
30.8900 566.0000 1.0000
30.9000 544.0000 1.0000
30.9100 548.0000 1.0000
30.9200 562.0000 1.0000
30.9300 583.0000 1.0000
30.9400 581.0000 1.0000
30.9500 565.0000 1.0000
30.9600 581.0000 1.0000
30.9700 595.0000 1.0000
30.9800 591.0000 1.0000
30.9900 613.0000 1.0000
31.0000 596.0000 1.0000
31.0100 631.0000 1.0000
31.0200 631.0000 1.0000
31.0300 621.0000 1.0000
31.0400 566.0000 1.0000
31.0500 611.0000 1.0000
31.0600 606.0000 1.0000
31.0700 595.0000 1.0000
31.0800 610.0000 1.0000
31.0900 608.0000 1.0000
31.1000 607.0000 1.0000
31.1100 600.0000 1.0000
31.1200 611.0000 1.0000
31.1300 631.0000 1.0000
31.1400 589.0000 1.0000
31.1500 555.0000 1.0000
31.1600 575.0000 1.0000
31.1700 614.0000 1.0000
31.1800 619.0000 1.0000
31.1900 601.0000 1.0000
31.2000 618.0000 1.0000
31.2100 593.0000 1.0000
31.2200 595.0000 1.0000
31.2300 602.0000 1.0000
31.2400 568.0000 1.0000
31.2500 598.0000 1.0000
31.2600 605.0000 1.0000
31.2700 620.0000 1.0000
31.2800 634.0000 1.0000
31.2900 597.0000 1.0000
31.3000 571.0000 1.0000
31.3100 590.0000 1.0000
31.3200 567.0000 1.0000
31.3300 588.0000 1.0000
31.3400 616.0000 1.0000
31.3500 580.0000 1.0000
31.3600 564.0000 1.0000
31.3700 598.0000 1.0000
31.3800 591.0000 1.0000
31.3900 604.0000 1.0000
31.4000 627.0000 1.0000
31.4100 600.0000 1.0000
31.4200 596.0000 1.0000
31.4300 567.0000 1.0000
31.4400 580.0000 1.0000
31.4500 586.0000 1.0000
31.4600 601.0000 1.0000
31.4700 553.0000 1.0000
31.4800 580.0000 1.0000
31.4900 564.0000 1.0000
31.5000 591.0000 1.0000
31.5100 563.0000 1.0000
31.5200 601.0000 1.0000
31.5300 599.0000 1.0000
31.5400 574.0000 1.0000
31.5500 581.0000 1.0000
31.5600 566.0000 1.0000
31.5700 600.0000 1.0000
31.5800 575.0000 1.0000
31.5900 616.0000 1.0000
31.6000 594.0000 1.0000
31.6100 566.0000 1.0000
31.6200 536.0000 1.0000
31.6300 581.0000 1.0000
31.6400 536.0000 1.0000
31.6500 585.0000 1.0000
31.6600 542.0000 1.0000
31.6700 565.0000 1.0000
31.6800 583.0000 1.0000
31.6900 551.0000 1.0000
31.7000 557.0000 1.0000
31.7100 529.0000 1.0000
31.7200 519.0000 1.0000
31.7300 606.0000 1.0000
31.7400 590.0000 1.0000
31.7500 544.0000 1.0000
31.7600 571.0000 1.0000
31.7700 575.0000 1.0000
31.7800 587.0000 1.0000
31.7900 590.0000 1.0000
31.8000 566.0000 1.0000
31.8100 543.0000 1.0000
31.8200 582.0000 1.0000
31.8300 572.0000 1.0000
31.8400 567.0000 1.0000
31.8500 528.0000 1.0000
31.8600 546.0000 1.0000
31.8700 550.0000 1.0000
31.8800 584.0000 1.0000
31.8900 567.0000 1.0000
31.9000 588.0000 1.0000
31.9100 530.0000 1.0000
31.9200 570.0000 1.0000
31.9300 583.0000 1.0000
31.9400 544.0000 1.0000
31.9500 574.0000 1.0000
31.9600 552.0000 1.0000
31.9700 554.0000 1.0000
31.9800 588.0000 1.0000
31.9900 560.0000 1.0000
32.0000 563.0000 1.0000
32.0100 553.0000 1.0000
32.0200 586.0000 1.0000
32.0300 584.0000 1.0000
32.0400 550.0000 1.0000
32.0500 570.0000 1.0000
32.0600 577.0000 1.0000
32.0700 551.0000 1.0000
32.0800 618.0000 1.0000
32.0900 558.0000 1.0000
32.1000 563.0000 1.0000
32.1100 571.0000 1.0000
32.1200 573.0000 1.0000
32.1300 533.0000 1.0000
32.1400 556.0000 1.0000
32.1500 561.0000 1.0000
32.1600 564.0000 1.0000
32.1700 581.0000 1.0000
32.1800 521.0000 1.0000
32.1900 536.0000 1.0000
32.2000 581.0000 1.0000
32.2100 561.0000 1.0000
32.2200 560.0000 1.0000
32.2300 568.0000 1.0000
32.2400 520.0000 1.0000
32.2500 570.0000 1.0000
32.2600 573.0000 1.0000
32.2700 534.0000 1.0000
32.2800 544.0000 1.0000
32.2900 555.0000 1.0000
32.3000 556.0000 1.0000
32.3100 525.0000 1.0000
32.3200 518.0000 1.0000
32.3300 566.0000 1.0000
32.3400 528.0000 1.0000
32.3500 568.0000 1.0000
32.3600 569.0000 1.0000
32.3700 557.0000 1.0000
32.3800 572.0000 1.0000
32.3900 566.0000 1.0000
32.4000 536.0000 1.0000
32.4100 540.0000 1.0000
32.4200 565.0000 1.0000
32.4300 550.0000 1.0000
32.4400 548.0000 1.0000
32.4500 554.0000 1.0000
32.4600 528.0000 1.0000
32.4700 556.0000 1.0000
32.4800 576.0000 1.0000
32.4900 566.0000 1.0000
32.5000 556.0000 1.0000
32.5100 570.0000 1.0000
32.5200 530.0000 1.0000
32.5300 579.0000 1.0000
32.5400 511.0000 1.0000
32.5500 530.0000 1.0000
32.5600 569.0000 1.0000
32.5700 562.0000 1.0000
32.5800 570.0000 1.0000
32.5900 559.0000 1.0000
32.6000 603.0000 1.0000
32.6100 598.0000 1.0000
32.6200 575.0000 1.0000
32.6300 552.0000 1.0000
32.6400 585.0000 1.0000
32.6500 574.0000 1.0000
32.6600 564.0000 1.0000
32.6700 569.0000 1.0000
32.6800 583.0000 1.0000
32.6900 540.0000 1.0000
32.7000 558.0000 1.0000
32.7100 553.0000 1.0000
32.7200 538.0000 1.0000
32.7300 539.0000 1.0000
32.7400 549.0000 1.0000
32.7500 583.0000 1.0000
32.7600 585.0000 1.0000
32.7700 585.0000 1.0000
32.7800 508.0000 1.0000
32.7900 568.0000 1.0000
32.8000 516.0000 1.0000
32.8100 519.0000 1.0000
32.8200 567.0000 1.0000
32.8300 543.0000 1.0000
32.8400 571.0000 1.0000
32.8500 599.0000 1.0000
32.8600 585.0000 1.0000
32.8700 566.0000 1.0000
32.8800 558.0000 1.0000
32.8900 531.0000 1.0000
32.9000 572.0000 1.0000
32.9100 614.0000 1.0000
32.9200 593.0000 1.0000
32.9300 586.0000 1.0000
32.9400 600.0000 1.0000
32.9500 618.0000 1.0000
32.9600 614.0000 1.0000
32.9700 620.0000 1.0000
32.9800 605.0000 1.0000
32.9900 614.0000 1.0000
33.0000 587.0000 1.0000
33.0100 610.0000 1.0000
33.0200 591.0000 1.0000
33.0300 635.0000 1.0000
33.0400 646.0000 1.0000
33.0500 615.0000 1.0000
33.0600 656.0000 1.0000
33.0700 645.0000 1.0000
33.0800 624.0000 1.0000
33.0900 563.0000 1.0000
33.1000 627.0000 1.0000
33.1100 628.0000 1.0000
33.1200 565.0000 1.0000
33.1300 606.0000 1.0000
33.1400 600.0000 1.0000
33.1500 588.0000 1.0000
33.1600 602.0000 1.0000
33.1700 597.0000 1.0000
33.1800 653.0000 1.0000
33.1900 599.0000 1.0000
33.2000 572.0000 1.0000
33.2100 629.0000 1.0000
33.2200 600.0000 1.0000
33.2300 584.0000 1.0000
33.2400 623.0000 1.0000
33.2500 665.0000 1.0000
33.2600 596.0000 1.0000
33.2700 571.0000 1.0000
33.2800 606.0000 1.0000
33.2900 602.0000 1.0000
33.3000 613.0000 1.0000
33.3100 611.0000 1.0000
33.3200 607.0000 1.0000
33.3300 651.0000 1.0000
33.3400 611.0000 1.0000
33.3500 633.0000 1.0000
33.3600 615.0000 1.0000
33.3700 631.0000 1.0000
33.3800 666.0000 1.0000
33.3900 668.0000 1.0000
33.4000 714.0000 1.0000
33.4100 664.0000 1.0000
33.4200 703.0000 1.0000
33.4300 734.0000 1.0000
33.4400 732.0000 1.0000
33.4500 754.0000 1.0000
33.4600 800.0000 1.0000
33.4700 746.0000 1.0000
33.4800 770.0000 1.0000
33.4900 822.0000 1.0000
33.5000 824.0000 1.0000
33.5100 898.0000 1.0000
33.5200 879.0000 1.0000
33.5300 964.0000 1.0000
33.5400 1005.0000 1.0000
33.5500 1056.0000 1.0000
33.5600 1085.0000 1.0000
33.5700 1109.0000 1.0000
33.5800 1154.0000 1.0000
33.5900 1234.0000 1.0000
33.6000 1293.0000 1.0000
33.6100 1340.0000 1.0000
33.6200 1386.0000 1.0000
33.6300 1405.0000 1.0000
33.6400 1392.0000 1.0000
33.6500 1374.0000 1.0000
33.6600 1431.0000 1.0000
33.6700 1311.0000 1.0000
33.6800 1334.0000 1.0000
33.6900 1339.0000 1.0000
33.7000 1342.0000 1.0000
33.7100 1329.0000 1.0000
33.7200 1211.0000 1.0000
33.7300 1160.0000 1.0000
33.7400 1131.0000 1.0000
33.7500 1071.0000 1.0000
33.7600 1066.0000 1.0000
33.7700 1049.0000 1.0000
33.7800 1008.0000 1.0000
33.7900 915.0000 1.0000
33.8000 896.0000 1.0000
33.8100 875.0000 1.0000
33.8200 860.0000 1.0000
33.8300 779.0000 1.0000
33.8400 765.0000 1.0000
33.8500 784.0000 1.0000
33.8600 707.0000 1.0000
33.8700 667.0000 1.0000
33.8800 705.0000 1.0000
33.8900 704.0000 1.0000
33.9000 667.0000 1.0000
33.9100 717.0000 1.0000
33.9200 709.0000 1.0000
33.9300 637.0000 1.0000
33.9400 651.0000 1.0000
33.9500 628.0000 1.0000
33.9600 650.0000 1.0000
33.9700 604.0000 1.0000
33.9800 625.0000 1.0000
33.9900 605.0000 1.0000
34.0000 605.0000 1.0000
34.0100 578.0000 1.0000
34.0200 582.0000 1.0000
34.0300 596.0000 1.0000
34.0400 573.0000 1.0000
34.0500 538.0000 1.0000
34.0600 577.0000 1.0000
34.0700 572.0000 1.0000
34.0800 567.0000 1.0000
34.0900 554.0000 1.0000
34.1000 518.0000 1.0000
34.1100 562.0000 1.0000
34.1200 535.0000 1.0000
34.1300 560.0000 1.0000
34.1400 533.0000 1.0000
34.1500 557.0000 1.0000
34.1600 538.0000 1.0000
34.1700 535.0000 1.0000
34.1800 535.0000 1.0000
34.1900 514.0000 1.0000
34.2000 537.0000 1.0000
34.2100 536.0000 1.0000
34.2200 525.0000 1.0000
34.2300 546.0000 1.0000
34.2400 528.0000 1.0000
34.2500 515.0000 1.0000
34.2600 502.0000 1.0000
34.2700 511.0000 1.0000
34.2800 518.0000 1.0000
34.2900 514.0000 1.0000
34.3000 559.0000 1.0000
34.3100 523.0000 1.0000
34.3200 527.0000 1.0000
34.3300 544.0000 1.0000
34.3400 495.0000 1.0000
34.3500 496.0000 1.0000
34.3600 527.0000 1.0000
34.3700 555.0000 1.0000
34.3800 512.0000 1.0000
34.3900 514.0000 1.0000
34.4000 474.0000 1.0000
34.4100 520.0000 1.0000
34.4200 498.0000 1.0000
34.4300 525.0000 1.0000
34.4400 521.0000 1.0000
34.4500 496.0000 1.0000
34.4600 501.0000 1.0000
34.4700 512.0000 1.0000
34.4800 498.0000 1.0000
34.4900 491.0000 1.0000
34.5000 500.0000 1.0000
34.5100 548.0000 1.0000
34.5200 523.0000 1.0000
34.5300 515.0000 1.0000
34.5400 467.0000 1.0000
34.5500 496.0000 1.0000
34.5600 509.0000 1.0000
34.5700 503.0000 1.0000
34.5800 493.0000 1.0000
34.5900 480.0000 1.0000
34.6000 529.0000 1.0000
34.6100 480.0000 1.0000
34.6200 535.0000 1.0000
34.6300 506.0000 1.0000
34.6400 532.0000 1.0000
34.6500 513.0000 1.0000
34.6600 472.0000 1.0000
34.6700 509.0000 1.0000
34.6800 493.0000 1.0000
34.6900 478.0000 1.0000
34.7000 506.0000 1.0000
34.7100 495.0000 1.0000
34.7200 486.0000 1.0000
34.7300 522.0000 1.0000
34.7400 488.0000 1.0000
34.7500 505.0000 1.0000
34.7600 488.0000 1.0000
34.7700 497.0000 1.0000
34.7800 494.0000 1.0000
34.7900 480.0000 1.0000
34.8000 494.0000 1.0000
34.8100 460.0000 1.0000
34.8200 499.0000 1.0000
34.8300 470.0000 1.0000
34.8400 477.0000 1.0000
34.8500 469.0000 1.0000
34.8600 445.0000 1.0000
34.8700 432.0000 1.0000
34.8800 473.0000 1.0000
34.8900 475.0000 1.0000
34.9000 496.0000 1.0000
34.9100 463.0000 1.0000
34.9200 483.0000 1.0000
34.9300 490.0000 1.0000
34.9400 480.0000 1.0000
34.9500 508.0000 1.0000
34.9600 503.0000 1.0000
34.9700 467.0000 1.0000
34.9800 441.0000 1.0000
34.9900 474.0000 1.0000
35.0000 510.0000 1.0000
35.0100 501.0000 1.0000
35.0200 472.0000 1.0000
35.0300 484.0000 1.0000
35.0400 501.0000 1.0000
35.0500 462.0000 1.0000
35.0600 483.0000 1.0000
35.0700 468.0000 1.0000
35.0800 507.0000 1.0000
35.0900 453.0000 1.0000
35.1000 448.0000 1.0000
35.1100 467.0000 1.0000
35.1200 464.0000 1.0000
35.1300 503.0000 1.0000
35.1400 524.0000 1.0000
35.1500 494.0000 1.0000
35.1600 478.0000 1.0000
35.1700 500.0000 1.0000
35.1800 470.0000 1.0000
35.1900 502.0000 1.0000
35.2000 461.0000 1.0000
35.2100 518.0000 1.0000
35.2200 474.0000 1.0000
35.2300 479.0000 1.0000
35.2400 507.0000 1.0000
35.2500 483.0000 1.0000
35.2600 499.0000 1.0000
35.2700 486.0000 1.0000
35.2800 511.0000 1.0000
35.2900 511.0000 1.0000
35.3000 534.0000 1.0000
35.3100 525.0000 1.0000
35.3200 529.0000 1.0000
35.3300 529.0000 1.0000
35.3400 587.0000 1.0000
35.3500 574.0000 1.0000
35.3600 535.0000 1.0000
35.3700 535.0000 1.0000
35.3800 534.0000 1.0000
35.3900 604.0000 1.0000
35.4000 575.0000 1.0000
35.4100 620.0000 1.0000
35.4200 632.0000 1.0000
35.4300 629.0000 1.0000
35.4400 647.0000 1.0000
35.4500 648.0000 1.0000
35.4600 676.0000 1.0000
35.4700 767.0000 1.0000
35.4800 713.0000 1.0000
35.4900 750.0000 1.0000
35.5000 785.0000 1.0000
35.5100 826.0000 1.0000
35.5200 836.0000 1.0000
35.5300 841.0000 1.0000
35.5400 929.0000 1.0000
35.5500 892.0000 1.0000
35.5600 934.0000 1.0000
35.5700 905.0000 1.0000
35.5800 883.0000 1.0000
35.5900 897.0000 1.0000
35.6000 903.0000 1.0000
35.6100 885.0000 1.0000
35.6200 851.0000 1.0000
35.6300 869.0000 1.0000
35.6400 810.0000 1.0000
35.6500 791.0000 1.0000
35.6600 722.0000 1.0000
35.6700 742.0000 1.0000
35.6800 658.0000 1.0000
35.6900 679.0000 1.0000
35.7000 664.0000 1.0000
35.7100 623.0000 1.0000
35.7200 629.0000 1.0000
35.7300 565.0000 1.0000
35.7400 569.0000 1.0000
35.7500 528.0000 1.0000
35.7600 574.0000 1.0000
35.7700 526.0000 1.0000
35.7800 536.0000 1.0000
35.7900 539.0000 1.0000
35.8000 477.0000 1.0000
35.8100 525.0000 1.0000
35.8200 510.0000 1.0000
35.8300 481.0000 1.0000
35.8400 487.0000 1.0000
35.8500 478.0000 1.0000
35.8600 470.0000 1.0000
35.8700 474.0000 1.0000
35.8800 428.0000 1.0000
35.8900 430.0000 1.0000
35.9000 474.0000 1.0000
35.9100 495.0000 1.0000
35.9200 479.0000 1.0000
35.9300 465.0000 1.0000
35.9400 458.0000 1.0000
35.9500 454.0000 1.0000
35.9600 468.0000 1.0000
35.9700 461.0000 1.0000
35.9800 494.0000 1.0000
35.9900 427.0000 1.0000
36.0000 434.0000 1.0000
36.0100 441.0000 1.0000
36.0200 484.0000 1.0000
36.0300 433.0000 1.0000
36.0400 424.0000 1.0000
36.0500 437.0000 1.0000
36.0600 447.0000 1.0000
36.0700 403.0000 1.0000
36.0800 453.0000 1.0000
36.0900 455.0000 1.0000
36.1000 457.0000 1.0000
36.1100 446.0000 1.0000
36.1200 469.0000 1.0000
36.1300 470.0000 1.0000
36.1400 473.0000 1.0000
36.1500 464.0000 1.0000
36.1600 441.0000 1.0000
36.1700 442.0000 1.0000
36.1800 423.0000 1.0000
36.1900 436.0000 1.0000
36.2000 462.0000 1.0000
36.2100 458.0000 1.0000
36.2200 473.0000 1.0000
36.2300 430.0000 1.0000
36.2400 403.0000 1.0000
36.2500 435.0000 1.0000
36.2600 451.0000 1.0000
36.2700 451.0000 1.0000
36.2800 472.0000 1.0000
36.2900 424.0000 1.0000
36.3000 440.0000 1.0000
36.3100 441.0000 1.0000
36.3200 454.0000 1.0000
36.3300 442.0000 1.0000
36.3400 471.0000 1.0000
36.3500 470.0000 1.0000
36.3600 459.0000 1.0000
36.3700 457.0000 1.0000
36.3800 464.0000 1.0000
36.3900 416.0000 1.0000
36.4000 463.0000 1.0000
36.4100 422.0000 1.0000
36.4200 434.0000 1.0000
36.4300 436.0000 1.0000
36.4400 461.0000 1.0000
36.4500 430.0000 1.0000
36.4600 417.0000 1.0000
36.4700 428.0000 1.0000
36.4800 438.0000 1.0000
36.4900 455.0000 1.0000
36.5000 440.0000 1.0000
36.5100 419.0000 1.0000
36.5200 472.0000 1.0000
36.5300 442.0000 1.0000
36.5400 420.0000 1.0000
36.5500 443.0000 1.0000
36.5600 435.0000 1.0000
36.5700 438.0000 1.0000
36.5800 466.0000 1.0000
36.5900 426.0000 1.0000
36.6000 443.0000 1.0000
36.6100 458.0000 1.0000
36.6200 416.0000 1.0000
36.6300 427.0000 1.0000
36.6400 435.0000 1.0000
36.6500 418.0000 1.0000
36.6600 460.0000 1.0000
36.6700 403.0000 1.0000
36.6800 452.0000 1.0000
36.6900 439.0000 1.0000
36.7000 449.0000 1.0000
36.7100 415.0000 1.0000
36.7200 417.0000 1.0000
36.7300 429.0000 1.0000
36.7400 422.0000 1.0000
36.7500 438.0000 1.0000
36.7600 420.0000 1.0000
36.7700 478.0000 1.0000
36.7800 449.0000 1.0000
36.7900 438.0000 1.0000
36.8000 471.0000 1.0000
36.8100 447.0000 1.0000
36.8200 449.0000 1.0000
36.8300 416.0000 1.0000
36.8400 449.0000 1.0000
36.8500 429.0000 1.0000
36.8600 417.0000 1.0000
36.8700 439.0000 1.0000
36.8800 430.0000 1.0000
36.8900 412.0000 1.0000
36.9000 438.0000 1.0000
36.9100 451.0000 1.0000
36.9200 418.0000 1.0000
36.9300 429.0000 1.0000
36.9400 428.0000 1.0000
36.9500 428.0000 1.0000
36.9600 458.0000 1.0000
36.9700 428.0000 1.0000
36.9800 427.0000 1.0000
36.9900 419.0000 1.0000
37.0000 422.0000 1.0000
37.0100 415.0000 1.0000
37.0200 442.0000 1.0000
37.0300 438.0000 1.0000
37.0400 451.0000 1.0000
37.0500 426.0000 1.0000
37.0600 474.0000 1.0000
37.0700 452.0000 1.0000
37.0800 449.0000 1.0000
37.0900 438.0000 1.0000
37.1000 486.0000 1.0000
37.1100 444.0000 1.0000
37.1200 463.0000 1.0000
37.1300 457.0000 1.0000
37.1400 440.0000 1.0000
37.1500 428.0000 1.0000
37.1600 457.0000 1.0000
37.1700 432.0000 1.0000
37.1800 457.0000 1.0000
37.1900 481.0000 1.0000
37.2000 437.0000 1.0000
37.2100 456.0000 1.0000
37.2200 497.0000 1.0000
37.2300 472.0000 1.0000
37.2400 495.0000 1.0000
37.2500 476.0000 1.0000
37.2600 483.0000 1.0000
37.2700 449.0000 1.0000
37.2800 475.0000 1.0000
37.2900 539.0000 1.0000
37.3000 501.0000 1.0000
37.3100 517.0000 1.0000
37.3200 529.0000 1.0000
37.3300 512.0000 1.0000
37.3400 519.0000 1.0000
37.3500 524.0000 1.0000
37.3600 550.0000 1.0000
37.3700 549.0000 1.0000
37.3800 590.0000 1.0000
37.3900 598.0000 1.0000
37.4000 587.0000 1.0000
37.4100 632.0000 1.0000
37.4200 617.0000 1.0000
37.4300 648.0000 1.0000
37.4400 702.0000 1.0000
37.4500 727.0000 1.0000
37.4600 744.0000 1.0000
37.4700 729.0000 1.0000
37.4800 808.0000 1.0000
37.4900 820.0000 1.0000
37.5000 854.0000 1.0000
37.5100 939.0000 1.0000
37.5200 932.0000 1.0000
37.5300 965.0000 1.0000
37.5400 1081.0000 1.0000
37.5500 1127.0000 1.0000
37.5600 1224.0000 1.0000
37.5700 1286.0000 1.0000
37.5800 1411.0000 1.0000
37.5900 1537.0000 1.0000
37.6000 1545.0000 1.0000
37.6100 1723.0000 1.0000
37.6200 1820.0000 1.0000
37.6300 1846.0000 1.0000
37.6400 1978.0000 1.0000
37.6500 2023.0000 1.0000
37.6600 2082.0000 1.0000
37.6700 2154.0000 1.0000
37.6800 2141.0000 1.0000
37.6900 2183.0000 1.0000
37.7000 2160.0000 1.0000
37.7100 2203.0000 1.0000
37.7200 2115.0000 1.0000
37.7300 2006.0000 1.0000
37.7400 2049.0000 1.0000
37.7500 1974.0000 1.0000
37.7600 1924.0000 1.0000
37.7700 1880.0000 1.0000
37.7800 1811.0000 1.0000
37.7900 1715.0000 1.0000
37.8000 1663.0000 1.0000
37.8100 1554.0000 1.0000
37.8200 1482.0000 1.0000
37.8300 1392.0000 1.0000
37.8400 1333.0000 1.0000
37.8500 1277.0000 1.0000
37.8600 1219.0000 1.0000
37.8700 1142.0000 1.0000
37.8800 1079.0000 1.0000
37.8900 1014.0000 1.0000
37.9000 917.0000 1.0000
37.9100 873.0000 1.0000
37.9200 818.0000 1.0000
37.9300 851.0000 1.0000
37.9400 814.0000 1.0000
37.9500 755.0000 1.0000
37.9600 725.0000 1.0000
37.9700 680.0000 1.0000
37.9800 624.0000 1.0000
37.9900 640.0000 1.0000
38.0000 627.0000 1.0000
38.0100 629.0000 1.0000
38.0200 597.0000 1.0000
38.0300 547.0000 1.0000
38.0400 581.0000 1.0000
38.0500 532.0000 1.0000
38.0600 530.0000 1.0000
38.0700 542.0000 1.0000
38.0800 525.0000 1.0000
38.0900 518.0000 1.0000
38.1000 488.0000 1.0000
38.1100 491.0000 1.0000
38.1200 504.0000 1.0000
38.1300 471.0000 1.0000
38.1400 458.0000 1.0000
38.1500 443.0000 1.0000
38.1600 450.0000 1.0000
38.1700 467.0000 1.0000
38.1800 447.0000 1.0000
38.1900 457.0000 1.0000
38.2000 425.0000 1.0000
38.2100 436.0000 1.0000
38.2200 456.0000 1.0000
38.2300 421.0000 1.0000
38.2400 406.0000 1.0000
38.2500 419.0000 1.0000
38.2600 428.0000 1.0000
38.2700 390.0000 1.0000
38.2800 426.0000 1.0000
38.2900 396.0000 1.0000
38.3000 401.0000 1.0000
38.3100 410.0000 1.0000
38.3200 424.0000 1.0000
38.3300 429.0000 1.0000
38.3400 426.0000 1.0000
38.3500 435.0000 1.0000
38.3600 394.0000 1.0000
38.3700 406.0000 1.0000
38.3800 424.0000 1.0000
38.3900 443.0000 1.0000
38.4000 403.0000 1.0000
38.4100 435.0000 1.0000
38.4200 423.0000 1.0000
38.4300 434.0000 1.0000
38.4400 370.0000 1.0000
38.4500 412.0000 1.0000
38.4600 414.0000 1.0000
38.4700 413.0000 1.0000
38.4800 387.0000 1.0000
38.4900 386.0000 1.0000
38.5000 376.0000 1.0000
38.5100 381.0000 1.0000
38.5200 402.0000 1.0000
38.5300 399.0000 1.0000
38.5400 404.0000 1.0000
38.5500 405.0000 1.0000
38.5600 367.0000 1.0000
38.5700 388.0000 1.0000
38.5800 397.0000 1.0000
38.5900 404.0000 1.0000
38.6000 386.0000 1.0000
38.6100 398.0000 1.0000
38.6200 422.0000 1.0000
38.6300 393.0000 1.0000
38.6400 372.0000 1.0000
38.6500 393.0000 1.0000
38.6600 420.0000 1.0000
38.6700 430.0000 1.0000
38.6800 414.0000 1.0000
38.6900 441.0000 1.0000
38.7000 406.0000 1.0000
38.7100 420.0000 1.0000
38.7200 413.0000 1.0000
38.7300 402.0000 1.0000
38.7400 429.0000 1.0000
38.7500 430.0000 1.0000
38.7600 422.0000 1.0000
38.7700 424.0000 1.0000
38.7800 423.0000 1.0000
38.7900 446.0000 1.0000
38.8000 416.0000 1.0000
38.8100 430.0000 1.0000
38.8200 412.0000 1.0000
38.8300 420.0000 1.0000
38.8400 380.0000 1.0000
38.8500 384.0000 1.0000
38.8600 405.0000 1.0000
38.8700 396.0000 1.0000
38.8800 403.0000 1.0000
38.8900 395.0000 1.0000
38.9000 389.0000 1.0000
38.9100 410.0000 1.0000
38.9200 372.0000 1.0000
38.9300 393.0000 1.0000
38.9400 398.0000 1.0000
38.9500 436.0000 1.0000
38.9600 403.0000 1.0000
38.9700 417.0000 1.0000
38.9800 382.0000 1.0000
38.9900 362.0000 1.0000
39.0000 389.0000 1.0000
39.0100 391.0000 1.0000
39.0200 351.0000 1.0000
39.0300 390.0000 1.0000
39.0400 412.0000 1.0000
39.0500 390.0000 1.0000
39.0600 400.0000 1.0000
39.0700 391.0000 1.0000
39.0800 386.0000 1.0000
39.0900 403.0000 1.0000
39.1000 363.0000 1.0000
39.1100 382.0000 1.0000
39.1200 358.0000 1.0000
39.1300 359.0000 1.0000
39.1400 361.0000 1.0000
39.1500 367.0000 1.0000
39.1600 382.0000 1.0000
39.1700 383.0000 1.0000
39.1800 350.0000 1.0000
39.1900 386.0000 1.0000
39.2000 360.0000 1.0000
39.2100 362.0000 1.0000
39.2200 345.0000 1.0000
39.2300 364.0000 1.0000
39.2400 368.0000 1.0000
39.2500 365.0000 1.0000
39.2600 353.0000 1.0000
39.2700 380.0000 1.0000
39.2800 366.0000 1.0000
39.2900 375.0000 1.0000
39.3000 397.0000 1.0000
39.3100 405.0000 1.0000
39.3200 413.0000 1.0000
39.3300 401.0000 1.0000
39.3400 378.0000 1.0000
39.3500 373.0000 1.0000
39.3600 393.0000 1.0000
39.3700 372.0000 1.0000
39.3800 381.0000 1.0000
39.3900 363.0000 1.0000
39.4000 367.0000 1.0000
39.4100 356.0000 1.0000
39.4200 344.0000 1.0000
39.4300 366.0000 1.0000
39.4400 362.0000 1.0000
39.4500 365.0000 1.0000
39.4600 368.0000 1.0000
39.4700 344.0000 1.0000
39.4800 345.0000 1.0000
39.4900 377.0000 1.0000
39.5000 386.0000 1.0000
39.5100 403.0000 1.0000
39.5200 381.0000 1.0000
39.5300 391.0000 1.0000
39.5400 384.0000 1.0000
39.5500 383.0000 1.0000
39.5600 371.0000 1.0000
39.5700 371.0000 1.0000
39.5800 380.0000 1.0000
39.5900 397.0000 1.0000
39.6000 342.0000 1.0000
39.6100 339.0000 1.0000
39.6200 354.0000 1.0000
39.6300 317.0000 1.0000
39.6400 371.0000 1.0000
39.6500 360.0000 1.0000
39.6600 363.0000 1.0000
39.6700 356.0000 1.0000
39.6800 356.0000 1.0000
39.6900 387.0000 1.0000
39.7000 346.0000 1.0000
39.7100 396.0000 1.0000
39.7200 365.0000 1.0000
39.7300 354.0000 1.0000
39.7400 363.0000 1.0000
39.7500 352.0000 1.0000
39.7600 367.0000 1.0000
39.7700 342.0000 1.0000
39.7800 355.0000 1.0000
39.7900 341.0000 1.0000
39.8000 342.0000 1.0000
39.8100 371.0000 1.0000
39.8200 372.0000 1.0000
39.8300 366.0000 1.0000
39.8400 404.0000 1.0000
39.8500 369.0000 1.0000
39.8600 353.0000 1.0000
39.8700 370.0000 1.0000
39.8800 367.0000 1.0000
39.8900 374.0000 1.0000
39.9000 386.0000 1.0000
39.9100 388.0000 1.0000
39.9200 355.0000 1.0000
39.9300 355.0000 1.0000
39.9400 360.0000 1.0000
39.9500 375.0000 1.0000
39.9600 357.0000 1.0000
39.9700 377.0000 1.0000
39.9800 365.0000 1.0000
39.9900 377.0000 1.0000
40.0000 372.0000 1.0000
40.0100 359.0000 1.0000
40.0200 370.0000 1.0000
40.0300 360.0000 1.0000
40.0400 386.0000 1.0000
40.0500 377.0000 1.0000
40.0600 377.0000 1.0000
40.0700 350.0000 1.0000
40.0800 355.0000 1.0000
40.0900 360.0000 1.0000
40.1000 351.0000 1.0000
40.1100 361.0000 1.0000
40.1200 336.0000 1.0000
40.1300 315.0000 1.0000
40.1400 345.0000 1.0000
40.1500 338.0000 1.0000
40.1600 370.0000 1.0000
40.1700 369.0000 1.0000
40.1800 361.0000 1.0000
40.1900 383.0000 1.0000
40.2000 380.0000 1.0000
40.2100 382.0000 1.0000
40.2200 361.0000 1.0000
40.2300 375.0000 1.0000
40.2400 378.0000 1.0000
40.2500 346.0000 1.0000
40.2600 372.0000 1.0000
40.2700 386.0000 1.0000
40.2800 369.0000 1.0000
40.2900 359.0000 1.0000
40.3000 373.0000 1.0000
40.3100 353.0000 1.0000
40.3200 346.0000 1.0000
40.3300 337.0000 1.0000
40.3400 355.0000 1.0000
40.3500 398.0000 1.0000
40.3600 372.0000 1.0000
40.3700 359.0000 1.0000
40.3800 359.0000 1.0000
40.3900 386.0000 1.0000
40.4000 354.0000 1.0000
40.4100 379.0000 1.0000
40.4200 347.0000 1.0000
40.4300 380.0000 1.0000
40.4400 389.0000 1.0000
40.4500 344.0000 1.0000
40.4600 347.0000 1.0000
40.4700 372.0000 1.0000
40.4800 350.0000 1.0000
40.4900 380.0000 1.0000
40.5000 369.0000 1.0000
40.5100 362.0000 1.0000
40.5200 373.0000 1.0000
40.5300 334.0000 1.0000
40.5400 326.0000 1.0000
40.5500 385.0000 1.0000
40.5600 363.0000 1.0000
40.5700 374.0000 1.0000
40.5800 363.0000 1.0000
40.5900 359.0000 1.0000
40.6000 377.0000 1.0000
40.6100 401.0000 1.0000
40.6200 344.0000 1.0000
40.6300 358.0000 1.0000
40.6400 374.0000 1.0000
40.6500 361.0000 1.0000
40.6600 356.0000 1.0000
40.6700 358.0000 1.0000
40.6800 367.0000 1.0000
40.6900 362.0000 1.0000
40.7000 367.0000 1.0000
40.7100 341.0000 1.0000
40.7200 356.0000 1.0000
40.7300 367.0000 1.0000
40.7400 373.0000 1.0000
40.7500 424.0000 1.0000
40.7600 396.0000 1.0000
40.7700 378.0000 1.0000
40.7800 373.0000 1.0000
40.7900 378.0000 1.0000
40.8000 365.0000 1.0000
40.8100 382.0000 1.0000
40.8200 379.0000 1.0000
40.8300 329.0000 1.0000
40.8400 367.0000 1.0000
40.8500 366.0000 1.0000
40.8600 363.0000 1.0000
40.8700 371.0000 1.0000
40.8800 353.0000 1.0000
40.8900 384.0000 1.0000
40.9000 381.0000 1.0000
40.9100 360.0000 1.0000
40.9200 370.0000 1.0000
40.9300 339.0000 1.0000
40.9400 383.0000 1.0000
40.9500 379.0000 1.0000
40.9600 337.0000 1.0000
40.9700 356.0000 1.0000
40.9800 371.0000 1.0000
40.9900 368.0000 1.0000
41.0000 363.0000 1.0000
41.0100 363.0000 1.0000
41.0200 356.0000 1.0000
41.0300 328.0000 1.0000
41.0400 344.0000 1.0000
41.0500 352.0000 1.0000
41.0600 363.0000 1.0000
41.0700 389.0000 1.0000
41.0800 354.0000 1.0000
41.0900 348.0000 1.0000
41.1000 349.0000 1.0000
41.1100 367.0000 1.0000
41.1200 348.0000 1.0000
41.1300 347.0000 1.0000
41.1400 347.0000 1.0000
41.1500 348.0000 1.0000
41.1600 379.0000 1.0000
41.1700 370.0000 1.0000
41.1800 339.0000 1.0000
41.1900 353.0000 1.0000
41.2000 385.0000 1.0000
41.2100 360.0000 1.0000
41.2200 344.0000 1.0000
41.2300 339.0000 1.0000
41.2400 373.0000 1.0000
41.2500 381.0000 1.0000
41.2600 363.0000 1.0000
41.2700 364.0000 1.0000
41.2800 385.0000 1.0000
41.2900 367.0000 1.0000
41.3000 372.0000 1.0000
41.3100 335.0000 1.0000
41.3200 359.0000 1.0000
41.3300 345.0000 1.0000
41.3400 350.0000 1.0000
41.3500 329.0000 1.0000
41.3600 321.0000 1.0000
41.3700 361.0000 1.0000
41.3800 358.0000 1.0000
41.3900 369.0000 1.0000
41.4000 345.0000 1.0000
41.4100 329.0000 1.0000
41.4200 337.0000 1.0000
41.4300 362.0000 1.0000
41.4400 387.0000 1.0000
41.4500 340.0000 1.0000
41.4600 371.0000 1.0000
41.4700 370.0000 1.0000
41.4800 350.0000 1.0000
41.4900 357.0000 1.0000
41.5000 359.0000 1.0000
41.5100 352.0000 1.0000
41.5200 365.0000 1.0000
41.5300 346.0000 1.0000
41.5400 368.0000 1.0000
41.5500 361.0000 1.0000
41.5600 334.0000 1.0000
41.5700 343.0000 1.0000
41.5800 369.0000 1.0000
41.5900 355.0000 1.0000
41.6000 341.0000 1.0000
41.6100 330.0000 1.0000
41.6200 336.0000 1.0000
41.6300 355.0000 1.0000
41.6400 348.0000 1.0000
41.6500 326.0000 1.0000
41.6600 325.0000 1.0000
41.6700 351.0000 1.0000
41.6800 370.0000 1.0000
41.6900 373.0000 1.0000
41.7000 377.0000 1.0000
41.7100 373.0000 1.0000
41.7200 345.0000 1.0000
41.7300 366.0000 1.0000
41.7400 356.0000 1.0000
41.7500 319.0000 1.0000
41.7600 344.0000 1.0000
41.7700 355.0000 1.0000
41.7800 361.0000 1.0000
41.7900 327.0000 1.0000
41.8000 367.0000 1.0000
41.8100 335.0000 1.0000
41.8200 353.0000 1.0000
41.8300 344.0000 1.0000
41.8400 361.0000 1.0000
41.8500 353.0000 1.0000
41.8600 372.0000 1.0000
41.8700 366.0000 1.0000
41.8800 356.0000 1.0000
41.8900 342.0000 1.0000
41.9000 328.0000 1.0000
41.9100 343.0000 1.0000
41.9200 364.0000 1.0000
41.9300 362.0000 1.0000
41.9400 367.0000 1.0000
41.9500 331.0000 1.0000
41.9600 355.0000 1.0000
41.9700 351.0000 1.0000
41.9800 344.0000 1.0000
41.9900 330.0000 1.0000
42.0000 362.0000 1.0000
42.0100 377.0000 1.0000
42.0200 385.0000 1.0000
42.0300 383.0000 1.0000
42.0400 334.0000 1.0000
42.0500 342.0000 1.0000
42.0600 328.0000 1.0000
42.0700 359.0000 1.0000
42.0800 345.0000 1.0000
42.0900 331.0000 1.0000
42.1000 348.0000 1.0000
42.1100 366.0000 1.0000
42.1200 344.0000 1.0000
42.1300 330.0000 1.0000
42.1400 355.0000 1.0000
42.1500 351.0000 1.0000
42.1600 360.0000 1.0000
42.1700 357.0000 1.0000
42.1800 331.0000 1.0000
42.1900 365.0000 1.0000
42.2000 375.0000 1.0000
42.2100 358.0000 1.0000
42.2200 373.0000 1.0000
42.2300 392.0000 1.0000
42.2400 372.0000 1.0000
42.2500 323.0000 1.0000
42.2600 345.0000 1.0000
42.2700 372.0000 1.0000
42.2800 363.0000 1.0000
42.2900 377.0000 1.0000
42.3000 383.0000 1.0000
42.3100 365.0000 1.0000
42.3200 389.0000 1.0000
42.3300 386.0000 1.0000
42.3400 366.0000 1.0000
42.3500 369.0000 1.0000
42.3600 329.0000 1.0000
42.3700 350.0000 1.0000
42.3800 349.0000 1.0000
42.3900 394.0000 1.0000
42.4000 385.0000 1.0000
42.4100 399.0000 1.0000
42.4200 376.0000 1.0000
42.4300 411.0000 1.0000
42.4400 386.0000 1.0000
42.4500 401.0000 1.0000
42.4600 382.0000 1.0000
42.4700 383.0000 1.0000
42.4800 372.0000 1.0000
42.4900 392.0000 1.0000
42.5000 375.0000 1.0000
42.5100 395.0000 1.0000
42.5200 389.0000 1.0000
42.5300 392.0000 1.0000
42.5400 334.0000 1.0000
42.5500 369.0000 1.0000
42.5600 374.0000 1.0000
42.5700 385.0000 1.0000
42.5800 364.0000 1.0000
42.5900 350.0000 1.0000
42.6000 358.0000 1.0000
42.6100 352.0000 1.0000
42.6200 379.0000 1.0000
42.6300 359.0000 1.0000
42.6400 366.0000 1.0000
42.6500 356.0000 1.0000
42.6600 353.0000 1.0000
42.6700 332.0000 1.0000
42.6800 317.0000 1.0000
42.6900 362.0000 1.0000
42.7000 313.0000 1.0000
42.7100 328.0000 1.0000
42.7200 357.0000 1.0000
42.7300 366.0000 1.0000
42.7400 362.0000 1.0000
42.7500 338.0000 1.0000
42.7600 354.0000 1.0000
42.7700 337.0000 1.0000
42.7800 340.0000 1.0000
42.7900 360.0000 1.0000
42.8000 353.0000 1.0000
42.8100 347.0000 1.0000
42.8200 340.0000 1.0000
42.8300 331.0000 1.0000
42.8400 368.0000 1.0000
42.8500 333.0000 1.0000
42.8600 333.0000 1.0000
42.8700 348.0000 1.0000
42.8800 377.0000 1.0000
42.8900 342.0000 1.0000
42.9000 343.0000 1.0000
42.9100 354.0000 1.0000
42.9200 360.0000 1.0000
42.9300 360.0000 1.0000
42.9400 345.0000 1.0000
42.9500 341.0000 1.0000
42.9600 337.0000 1.0000
42.9700 355.0000 1.0000
42.9800 340.0000 1.0000
42.9900 340.0000 1.0000
43.0000 375.0000 1.0000
43.0100 325.0000 1.0000
43.0200 321.0000 1.0000
43.0300 332.0000 1.0000
43.0400 320.0000 1.0000
43.0500 314.0000 1.0000
43.0600 319.0000 1.0000
43.0700 347.0000 1.0000
43.0800 317.0000 1.0000
43.0900 306.0000 1.0000
43.1000 343.0000 1.0000
43.1100 352.0000 1.0000
43.1200 342.0000 1.0000
43.1300 361.0000 1.0000
43.1400 360.0000 1.0000
43.1500 354.0000 1.0000
43.1600 350.0000 1.0000
43.1700 351.0000 1.0000
43.1800 337.0000 1.0000
43.1900 327.0000 1.0000
43.2000 358.0000 1.0000
43.2100 349.0000 1.0000
43.2200 299.0000 1.0000
43.2300 348.0000 1.0000
43.2400 346.0000 1.0000
43.2500 348.0000 1.0000
43.2600 326.0000 1.0000
43.2700 352.0000 1.0000
43.2800 357.0000 1.0000
43.2900 365.0000 1.0000
43.3000 328.0000 1.0000
43.3100 375.0000 1.0000
43.3200 330.0000 1.0000
43.3300 358.0000 1.0000
43.3400 333.0000 1.0000
43.3500 343.0000 1.0000
43.3600 311.0000 1.0000
43.3700 329.0000 1.0000
43.3800 332.0000 1.0000
43.3900 314.0000 1.0000
43.4000 320.0000 1.0000
43.4100 333.0000 1.0000
43.4200 331.0000 1.0000
43.4300 328.0000 1.0000
43.4400 348.0000 1.0000
43.4500 339.0000 1.0000
43.4600 362.0000 1.0000
43.4700 331.0000 1.0000
43.4800 361.0000 1.0000
43.4900 361.0000 1.0000
43.5000 362.0000 1.0000
43.5100 347.0000 1.0000
43.5200 351.0000 1.0000
43.5300 353.0000 1.0000
43.5400 347.0000 1.0000
43.5500 332.0000 1.0000
43.5600 342.0000 1.0000
43.5700 343.0000 1.0000
43.5800 339.0000 1.0000
43.5900 330.0000 1.0000
43.6000 365.0000 1.0000
43.6100 350.0000 1.0000
43.6200 356.0000 1.0000
43.6300 343.0000 1.0000
43.6400 329.0000 1.0000
43.6500 351.0000 1.0000
43.6600 338.0000 1.0000
43.6700 351.0000 1.0000
43.6800 330.0000 1.0000
43.6900 340.0000 1.0000
43.7000 357.0000 1.0000
43.7100 341.0000 1.0000
43.7200 356.0000 1.0000
43.7300 360.0000 1.0000
43.7400 356.0000 1.0000
43.7500 354.0000 1.0000
43.7600 316.0000 1.0000
43.7700 330.0000 1.0000
43.7800 351.0000 1.0000
43.7900 352.0000 1.0000
43.8000 331.0000 1.0000
43.8100 346.0000 1.0000
43.8200 341.0000 1.0000
43.8300 335.0000 1.0000
43.8400 339.0000 1.0000
43.8500 327.0000 1.0000
43.8600 325.0000 1.0000
43.8700 350.0000 1.0000
43.8800 353.0000 1.0000
43.8900 344.0000 1.0000
43.9000 316.0000 1.0000
43.9100 343.0000 1.0000
43.9200 311.0000 1.0000
43.9300 310.0000 1.0000
43.9400 346.0000 1.0000
43.9500 320.0000 1.0000
43.9600 314.0000 1.0000
43.9700 350.0000 1.0000
43.9800 399.0000 1.0000
43.9900 350.0000 1.0000
44.0000 313.0000 1.0000
44.0100 336.0000 1.0000
44.0200 356.0000 1.0000
44.0300 340.0000 1.0000
44.0400 336.0000 1.0000
44.0500 332.0000 1.0000
44.0600 326.0000 1.0000
44.0700 350.0000 1.0000
44.0800 357.0000 1.0000
44.0900 341.0000 1.0000
44.1000 314.0000 1.0000
44.1100 318.0000 1.0000
44.1200 315.0000 1.0000
44.1300 321.0000 1.0000
44.1400 354.0000 1.0000
44.1500 347.0000 1.0000
44.1600 356.0000 1.0000
44.1700 321.0000 1.0000
44.1800 356.0000 1.0000
44.1900 320.0000 1.0000
44.2000 298.0000 1.0000
44.2100 305.0000 1.0000
44.2200 306.0000 1.0000
44.2300 331.0000 1.0000
44.2400 337.0000 1.0000
44.2500 335.0000 1.0000
44.2600 354.0000 1.0000
44.2700 340.0000 1.0000
44.2800 314.0000 1.0000
44.2900 351.0000 1.0000
44.3000 329.0000 1.0000
44.3100 334.0000 1.0000
44.3200 321.0000 1.0000
44.3300 335.0000 1.0000
44.3400 328.0000 1.0000
44.3500 327.0000 1.0000
44.3600 314.0000 1.0000
44.3700 310.0000 1.0000
44.3800 339.0000 1.0000
44.3900 330.0000 1.0000
44.4000 348.0000 1.0000
44.4100 317.0000 1.0000
44.4200 339.0000 1.0000
44.4300 347.0000 1.0000
44.4400 328.0000 1.0000
44.4500 310.0000 1.0000
44.4600 330.0000 1.0000
44.4700 313.0000 1.0000
44.4800 309.0000 1.0000
44.4900 328.0000 1.0000
44.5000 342.0000 1.0000
44.5100 328.0000 1.0000
44.5200 313.0000 1.0000
44.5300 319.0000 1.0000
44.5400 309.0000 1.0000
44.5500 289.0000 1.0000
44.5600 345.0000 1.0000
44.5700 319.0000 1.0000
44.5800 328.0000 1.0000
44.5900 340.0000 1.0000
44.6000 331.0000 1.0000
44.6100 337.0000 1.0000
44.6200 336.0000 1.0000
44.6300 319.0000 1.0000
44.6400 308.0000 1.0000
44.6500 319.0000 1.0000
44.6600 330.0000 1.0000
44.6700 340.0000 1.0000
44.6800 349.0000 1.0000
44.6900 331.0000 1.0000
44.7000 342.0000 1.0000
44.7100 309.0000 1.0000
44.7200 322.0000 1.0000
44.7300 321.0000 1.0000
44.7400 331.0000 1.0000
44.7500 332.0000 1.0000
44.7600 340.0000 1.0000
44.7700 353.0000 1.0000
44.7800 306.0000 1.0000
44.7900 308.0000 1.0000
44.8000 320.0000 1.0000
44.8100 343.0000 1.0000
44.8200 340.0000 1.0000
44.8300 337.0000 1.0000
44.8400 307.0000 1.0000
44.8500 335.0000 1.0000
44.8600 299.0000 1.0000
44.8700 310.0000 1.0000
44.8800 342.0000 1.0000
44.8900 332.0000 1.0000
44.9000 344.0000 1.0000
44.9100 322.0000 1.0000
44.9200 324.0000 1.0000
44.9300 343.0000 1.0000
44.9400 354.0000 1.0000
44.9500 336.0000 1.0000
44.9600 321.0000 1.0000
44.9700 320.0000 1.0000
44.9800 334.0000 1.0000
44.9900 312.0000 1.0000
45.0000 323.0000 1.0000
45.0100 360.0000 1.0000
45.0200 356.0000 1.0000
45.0300 327.0000 1.0000
45.0400 293.0000 1.0000
45.0500 319.0000 1.0000
45.0600 305.0000 1.0000
45.0700 334.0000 1.0000
45.0800 310.0000 1.0000
45.0900 324.0000 1.0000
45.1000 311.0000 1.0000
45.1100 308.0000 1.0000
45.1200 293.0000 1.0000
45.1300 321.0000 1.0000
45.1400 319.0000 1.0000
45.1500 327.0000 1.0000
45.1600 332.0000 1.0000
45.1700 300.0000 1.0000
45.1800 330.0000 1.0000
45.1900 338.0000 1.0000
45.2000 314.0000 1.0000
45.2100 306.0000 1.0000
45.2200 324.0000 1.0000
45.2300 297.0000 1.0000
45.2400 303.0000 1.0000
45.2500 317.0000 1.0000
45.2600 331.0000 1.0000
45.2700 326.0000 1.0000
45.2800 333.0000 1.0000
45.2900 313.0000 1.0000
45.3000 330.0000 1.0000
45.3100 291.0000 1.0000
45.3200 291.0000 1.0000
45.3300 316.0000 1.0000
45.3400 315.0000 1.0000
45.3500 311.0000 1.0000
45.3600 323.0000 1.0000
45.3700 316.0000 1.0000
45.3800 351.0000 1.0000
45.3900 322.0000 1.0000
45.4000 301.0000 1.0000
45.4100 304.0000 1.0000
45.4200 329.0000 1.0000
45.4300 312.0000 1.0000
45.4400 289.0000 1.0000
45.4500 329.0000 1.0000
45.4600 322.0000 1.0000
45.4700 300.0000 1.0000
45.4800 323.0000 1.0000
45.4900 314.0000 1.0000
45.5000 278.0000 1.0000
45.5100 293.0000 1.0000
45.5200 299.0000 1.0000
45.5300 302.0000 1.0000
45.5400 323.0000 1.0000
45.5500 309.0000 1.0000
45.5600 292.0000 1.0000
45.5700 337.0000 1.0000
45.5800 326.0000 1.0000
45.5900 310.0000 1.0000
45.6000 300.0000 1.0000
45.6100 319.0000 1.0000
45.6200 334.0000 1.0000
45.6300 310.0000 1.0000
45.6400 305.0000 1.0000
45.6500 326.0000 1.0000
45.6600 310.0000 1.0000
45.6700 306.0000 1.0000
45.6800 322.0000 1.0000
45.6900 319.0000 1.0000
45.7000 309.0000 1.0000
45.7100 327.0000 1.0000
45.7200 307.0000 1.0000
45.7300 307.0000 1.0000
45.7400 328.0000 1.0000
45.7500 314.0000 1.0000
45.7600 320.0000 1.0000
45.7700 308.0000 1.0000
45.7800 309.0000 1.0000
45.7900 345.0000 1.0000
45.8000 316.0000 1.0000
45.8100 320.0000 1.0000
45.8200 312.0000 1.0000
45.8300 316.0000 1.0000
45.8400 322.0000 1.0000
45.8500 275.0000 1.0000
45.8600 285.0000 1.0000
45.8700 315.0000 1.0000
45.8800 324.0000 1.0000
45.8900 292.0000 1.0000
45.9000 340.0000 1.0000
45.9100 323.0000 1.0000
45.9200 317.0000 1.0000
45.9300 328.0000 1.0000
45.9400 317.0000 1.0000
45.9500 341.0000 1.0000
45.9600 328.0000 1.0000
45.9700 316.0000 1.0000
45.9800 319.0000 1.0000
45.9900 286.0000 1.0000
46.0000 315.0000 1.0000
46.0100 310.0000 1.0000
46.0200 316.0000 1.0000
46.0300 314.0000 1.0000
46.0400 305.0000 1.0000
46.0500 309.0000 1.0000
46.0600 300.0000 1.0000
46.0700 296.0000 1.0000
46.0800 345.0000 1.0000
46.0900 298.0000 1.0000
46.1000 326.0000 1.0000
46.1100 319.0000 1.0000
46.1200 326.0000 1.0000
46.1300 314.0000 1.0000
46.1400 347.0000 1.0000
46.1500 343.0000 1.0000
46.1600 333.0000 1.0000
46.1700 343.0000 1.0000
46.1800 319.0000 1.0000
46.1900 300.0000 1.0000
46.2000 320.0000 1.0000
46.2100 301.0000 1.0000
46.2200 318.0000 1.0000
46.2300 333.0000 1.0000
46.2400 305.0000 1.0000
46.2500 325.0000 1.0000
46.2600 307.0000 1.0000
46.2700 307.0000 1.0000
46.2800 316.0000 1.0000
46.2900 311.0000 1.0000
46.3000 337.0000 1.0000
46.3100 297.0000 1.0000
46.3200 311.0000 1.0000
46.3300 327.0000 1.0000
46.3400 319.0000 1.0000
46.3500 306.0000 1.0000
46.3600 335.0000 1.0000
46.3700 310.0000 1.0000
46.3800 319.0000 1.0000
46.3900 336.0000 1.0000
46.4000 314.0000 1.0000
46.4100 289.0000 1.0000
46.4200 304.0000 1.0000
46.4300 305.0000 1.0000
46.4400 341.0000 1.0000
46.4500 316.0000 1.0000
46.4600 296.0000 1.0000
46.4700 300.0000 1.0000
46.4800 330.0000 1.0000
46.4900 323.0000 1.0000
46.5000 294.0000 1.0000
46.5100 312.0000 1.0000
46.5200 316.0000 1.0000
46.5300 301.0000 1.0000
46.5400 285.0000 1.0000
46.5500 284.0000 1.0000
46.5600 327.0000 1.0000
46.5700 295.0000 1.0000
46.5800 289.0000 1.0000
46.5900 297.0000 1.0000
46.6000 327.0000 1.0000
46.6100 341.0000 1.0000
46.6200 322.0000 1.0000
46.6300 298.0000 1.0000
46.6400 300.0000 1.0000
46.6500 325.0000 1.0000
46.6600 283.0000 1.0000
46.6700 296.0000 1.0000
46.6800 315.0000 1.0000
46.6900 332.0000 1.0000
46.7000 343.0000 1.0000
46.7100 315.0000 1.0000
46.7200 331.0000 1.0000
46.7300 337.0000 1.0000
46.7400 317.0000 1.0000
46.7500 317.0000 1.0000
46.7600 284.0000 1.0000
46.7700 287.0000 1.0000
46.7800 297.0000 1.0000
46.7900 290.0000 1.0000
46.8000 292.0000 1.0000
46.8100 281.0000 1.0000
46.8200 329.0000 1.0000
46.8300 313.0000 1.0000
46.8400 326.0000 1.0000
46.8500 316.0000 1.0000
46.8600 289.0000 1.0000
46.8700 284.0000 1.0000
46.8800 279.0000 1.0000
46.8900 324.0000 1.0000
46.9000 303.0000 1.0000
46.9100 290.0000 1.0000
46.9200 296.0000 1.0000
46.9300 283.0000 1.0000
46.9400 300.0000 1.0000
46.9500 307.0000 1.0000
46.9600 304.0000 1.0000
46.9700 281.0000 1.0000
46.9800 274.0000 1.0000
46.9900 269.0000 1.0000
47.0000 330.0000 1.0000
47.0100 289.0000 1.0000
47.0200 310.0000 1.0000
47.0300 326.0000 1.0000
47.0400 288.0000 1.0000
47.0500 301.0000 1.0000
47.0600 309.0000 1.0000
47.0700 306.0000 1.0000
47.0800 294.0000 1.0000
47.0900 298.0000 1.0000
47.1000 328.0000 1.0000
47.1100 303.0000 1.0000
47.1200 326.0000 1.0000
47.1300 294.0000 1.0000
47.1400 320.0000 1.0000
47.1500 274.0000 1.0000
47.1600 302.0000 1.0000
47.1700 310.0000 1.0000
47.1800 277.0000 1.0000
47.1900 289.0000 1.0000
47.2000 320.0000 1.0000
47.2100 308.0000 1.0000
47.2200 286.0000 1.0000
47.2300 277.0000 1.0000
47.2400 270.0000 1.0000
47.2500 308.0000 1.0000
47.2600 285.0000 1.0000
47.2700 299.0000 1.0000
47.2800 302.0000 1.0000
47.2900 312.0000 1.0000
47.3000 306.0000 1.0000
47.3100 328.0000 1.0000
47.3200 293.0000 1.0000
47.3300 275.0000 1.0000
47.3400 274.0000 1.0000
47.3500 283.0000 1.0000
47.3600 291.0000 1.0000
47.3700 286.0000 1.0000
47.3800 302.0000 1.0000
47.3900 286.0000 1.0000
47.4000 310.0000 1.0000
47.4100 325.0000 1.0000
47.4200 326.0000 1.0000
47.4300 306.0000 1.0000
47.4400 290.0000 1.0000
47.4500 273.0000 1.0000
47.4600 283.0000 1.0000
47.4700 301.0000 1.0000
47.4800 281.0000 1.0000
47.4900 283.0000 1.0000
47.5000 315.0000 1.0000
47.5100 301.0000 1.0000
47.5200 300.0000 1.0000
47.5300 336.0000 1.0000
47.5400 344.0000 1.0000
47.5500 314.0000 1.0000
47.5600 331.0000 1.0000
47.5700 330.0000 1.0000
47.5800 318.0000 1.0000
47.5900 322.0000 1.0000
47.6000 310.0000 1.0000
47.6100 297.0000 1.0000
47.6200 264.0000 1.0000
47.6300 297.0000 1.0000
47.6400 279.0000 1.0000
47.6500 288.0000 1.0000
47.6600 306.0000 1.0000
47.6700 287.0000 1.0000
47.6800 303.0000 1.0000
47.6900 297.0000 1.0000
47.7000 283.0000 1.0000
47.7100 298.0000 1.0000
47.7200 327.0000 1.0000
47.7300 297.0000 1.0000
47.7400 296.0000 1.0000
47.7500 300.0000 1.0000
47.7600 318.0000 1.0000
47.7700 318.0000 1.0000
47.7800 329.0000 1.0000
47.7900 308.0000 1.0000
47.8000 311.0000 1.0000
47.8100 307.0000 1.0000
47.8200 278.0000 1.0000
47.8300 291.0000 1.0000
47.8400 309.0000 1.0000
47.8500 287.0000 1.0000
47.8600 309.0000 1.0000
47.8700 285.0000 1.0000
47.8800 272.0000 1.0000
47.8900 312.0000 1.0000
47.9000 289.0000 1.0000
47.9100 295.0000 1.0000
47.9200 317.0000 1.0000
47.9300 304.0000 1.0000
47.9400 286.0000 1.0000
47.9500 299.0000 1.0000
47.9600 278.0000 1.0000
47.9700 302.0000 1.0000
47.9800 308.0000 1.0000
47.9900 305.0000 1.0000
48.0000 280.0000 1.0000
48.0100 298.0000 1.0000
48.0200 275.0000 1.0000
48.0300 255.0000 1.0000
48.0400 285.0000 1.0000
48.0500 277.0000 1.0000
48.0600 283.0000 1.0000
48.0700 277.0000 1.0000
48.0800 303.0000 1.0000
48.0900 283.0000 1.0000
48.1000 279.0000 1.0000
48.1100 315.0000 1.0000
48.1200 322.0000 1.0000
48.1300 323.0000 1.0000
48.1400 319.0000 1.0000
48.1500 248.0000 1.0000
48.1600 298.0000 1.0000
48.1700 293.0000 1.0000
48.1800 314.0000 1.0000
48.1900 311.0000 1.0000
48.2000 316.0000 1.0000
48.2100 302.0000 1.0000
48.2200 294.0000 1.0000
48.2300 323.0000 1.0000
48.2400 288.0000 1.0000
48.2500 316.0000 1.0000
48.2600 314.0000 1.0000
48.2700 297.0000 1.0000
48.2800 326.0000 1.0000
48.2900 291.0000 1.0000
48.3000 266.0000 1.0000
48.3100 263.0000 1.0000
48.3200 344.0000 1.0000
48.3300 312.0000 1.0000
48.3400 290.0000 1.0000
48.3500 307.0000 1.0000
48.3600 294.0000 1.0000
48.3700 273.0000 1.0000
48.3800 280.0000 1.0000
48.3900 310.0000 1.0000
48.4000 278.0000 1.0000
48.4100 297.0000 1.0000
48.4200 300.0000 1.0000
48.4300 303.0000 1.0000
48.4400 301.0000 1.0000
48.4500 268.0000 1.0000
48.4600 298.0000 1.0000
48.4700 268.0000 1.0000
48.4800 311.0000 1.0000
48.4900 313.0000 1.0000
48.5000 281.0000 1.0000
48.5100 295.0000 1.0000
48.5200 313.0000 1.0000
48.5300 274.0000 1.0000
48.5400 298.0000 1.0000
48.5500 299.0000 1.0000
48.5600 277.0000 1.0000
48.5700 264.0000 1.0000
48.5800 302.0000 1.0000
48.5900 286.0000 1.0000
48.6000 283.0000 1.0000
48.6100 279.0000 1.0000
48.6200 281.0000 1.0000
48.6300 300.0000 1.0000
48.6400 271.0000 1.0000
48.6500 280.0000 1.0000
48.6600 301.0000 1.0000
48.6700 292.0000 1.0000
48.6800 322.0000 1.0000
48.6900 312.0000 1.0000
48.7000 283.0000 1.0000
48.7100 289.0000 1.0000
48.7200 298.0000 1.0000
48.7300 281.0000 1.0000
48.7400 317.0000 1.0000
48.7500 282.0000 1.0000
48.7600 302.0000 1.0000
48.7700 288.0000 1.0000
48.7800 300.0000 1.0000
48.7900 284.0000 1.0000
48.8000 296.0000 1.0000
48.8100 288.0000 1.0000
48.8200 311.0000 1.0000
48.8300 284.0000 1.0000
48.8400 282.0000 1.0000
48.8500 313.0000 1.0000
48.8600 285.0000 1.0000
48.8700 283.0000 1.0000
48.8800 290.0000 1.0000
48.8900 306.0000 1.0000
48.9000 288.0000 1.0000
48.9100 293.0000 1.0000
48.9200 299.0000 1.0000
48.9300 276.0000 1.0000
48.9400 291.0000 1.0000
48.9500 275.0000 1.0000
48.9600 286.0000 1.0000
48.9700 272.0000 1.0000
48.9800 295.0000 1.0000
48.9900 285.0000 1.0000
49.0000 297.0000 1.0000
49.0100 325.0000 1.0000
49.0200 311.0000 1.0000
49.0300 277.0000 1.0000
49.0400 323.0000 1.0000
49.0500 311.0000 1.0000
49.0600 284.0000 1.0000
49.0700 297.0000 1.0000
49.0800 305.0000 1.0000
49.0900 298.0000 1.0000
49.1000 293.0000 1.0000
49.1100 280.0000 1.0000
49.1200 295.0000 1.0000
49.1300 279.0000 1.0000
49.1400 327.0000 1.0000
49.1500 290.0000 1.0000
49.1600 297.0000 1.0000
49.1700 296.0000 1.0000
49.1800 290.0000 1.0000
49.1900 308.0000 1.0000
49.2000 308.0000 1.0000
49.2100 281.0000 1.0000
49.2200 292.0000 1.0000
49.2300 265.0000 1.0000
49.2400 293.0000 1.0000
49.2500 296.0000 1.0000
49.2600 294.0000 1.0000
49.2700 294.0000 1.0000
49.2800 293.0000 1.0000
49.2900 284.0000 1.0000
49.3000 293.0000 1.0000
49.3100 284.0000 1.0000
49.3200 307.0000 1.0000
49.3300 326.0000 1.0000
49.3400 297.0000 1.0000
49.3500 301.0000 1.0000
49.3600 283.0000 1.0000
49.3700 301.0000 1.0000
49.3800 308.0000 1.0000
49.3900 334.0000 1.0000
49.4000 315.0000 1.0000
49.4100 336.0000 1.0000
49.4200 304.0000 1.0000
49.4300 313.0000 1.0000
49.4400 323.0000 1.0000
49.4500 314.0000 1.0000
49.4600 311.0000 1.0000
49.4700 306.0000 1.0000
49.4800 311.0000 1.0000
49.4900 315.0000 1.0000
49.5000 325.0000 1.0000
49.5100 302.0000 1.0000
49.5200 297.0000 1.0000
49.5300 335.0000 1.0000
49.5400 343.0000 1.0000
49.5500 303.0000 1.0000
49.5600 318.0000 1.0000
49.5700 295.0000 1.0000
49.5800 318.0000 1.0000
49.5900 316.0000 1.0000
49.6000 308.0000 1.0000
49.6100 299.0000 1.0000
49.6200 301.0000 1.0000
49.6300 311.0000 1.0000
49.6400 291.0000 1.0000
49.6500 316.0000 1.0000
49.6600 302.0000 1.0000
49.6700 299.0000 1.0000
49.6800 330.0000 1.0000
49.6900 288.0000 1.0000
49.7000 268.0000 1.0000
49.7100 303.0000 1.0000
49.7200 300.0000 1.0000
49.7300 297.0000 1.0000
49.7400 319.0000 1.0000
49.7500 303.0000 1.0000
49.7600 285.0000 1.0000
49.7700 278.0000 1.0000
49.7800 297.0000 1.0000
49.7900 316.0000 1.0000
49.8000 291.0000 1.0000
49.8100 301.0000 1.0000
49.8200 314.0000 1.0000
49.8300 322.0000 1.0000
49.8400 318.0000 1.0000
49.8500 300.0000 1.0000
49.8600 282.0000 1.0000
49.8700 306.0000 1.0000
49.8800 308.0000 1.0000
49.8900 320.0000 1.0000
49.9000 322.0000 1.0000
49.9100 295.0000 1.0000
49.9200 299.0000 1.0000
49.9300 288.0000 1.0000
49.9400 284.0000 1.0000
49.9500 288.0000 1.0000
49.9600 297.0000 1.0000
49.9700 293.0000 1.0000
49.9800 326.0000 1.0000
49.9900 322.0000 1.0000
50.0000 274.0000 1.0000
50.0100 292.0000 1.0000
50.0200 330.0000 1.0000
50.0300 279.0000 1.0000
50.0400 274.0000 1.0000
50.0500 292.0000 1.0000
50.0600 313.0000 1.0000
50.0700 309.0000 1.0000
50.0800 303.0000 1.0000
50.0900 317.0000 1.0000
50.1000 317.0000 1.0000
50.1100 308.0000 1.0000
50.1200 322.0000 1.0000
50.1300 278.0000 1.0000
50.1400 293.0000 1.0000
50.1500 281.0000 1.0000
50.1600 298.0000 1.0000
50.1700 327.0000 1.0000
50.1800 306.0000 1.0000
50.1900 312.0000 1.0000
50.2000 309.0000 1.0000
50.2100 287.0000 1.0000
50.2200 294.0000 1.0000
50.2300 300.0000 1.0000
50.2400 302.0000 1.0000
50.2500 298.0000 1.0000
50.2600 302.0000 1.0000
50.2700 262.0000 1.0000
50.2800 304.0000 1.0000
50.2900 305.0000 1.0000
50.3000 287.0000 1.0000
50.3100 312.0000 1.0000
50.3200 321.0000 1.0000
50.3300 273.0000 1.0000
50.3400 287.0000 1.0000
50.3500 302.0000 1.0000
50.3600 308.0000 1.0000
50.3700 289.0000 1.0000
50.3800 288.0000 1.0000
50.3900 333.0000 1.0000
50.4000 280.0000 1.0000
50.4100 294.0000 1.0000
50.4200 301.0000 1.0000
50.4300 294.0000 1.0000
50.4400 298.0000 1.0000
50.4500 287.0000 1.0000
50.4600 306.0000 1.0000
50.4700 290.0000 1.0000
50.4800 290.0000 1.0000
50.4900 267.0000 1.0000
50.5000 301.0000 1.0000
50.5100 273.0000 1.0000
50.5200 328.0000 1.0000
50.5300 320.0000 1.0000
50.5400 299.0000 1.0000
50.5500 330.0000 1.0000
50.5600 326.0000 1.0000
50.5700 304.0000 1.0000
50.5800 308.0000 1.0000
50.5900 301.0000 1.0000
50.6000 263.0000 1.0000
50.6100 288.0000 1.0000
50.6200 296.0000 1.0000
50.6300 308.0000 1.0000
50.6400 298.0000 1.0000
50.6500 315.0000 1.0000
50.6600 320.0000 1.0000
50.6700 281.0000 1.0000
50.6800 297.0000 1.0000
50.6900 297.0000 1.0000
50.7000 321.0000 1.0000
50.7100 314.0000 1.0000
50.7200 317.0000 1.0000
50.7300 286.0000 1.0000
50.7400 294.0000 1.0000
50.7500 283.0000 1.0000
50.7600 319.0000 1.0000
50.7700 301.0000 1.0000
50.7800 308.0000 1.0000
50.7900 304.0000 1.0000
50.8000 320.0000 1.0000
50.8100 336.0000 1.0000
50.8200 296.0000 1.0000
50.8300 316.0000 1.0000
50.8400 286.0000 1.0000
50.8500 305.0000 1.0000
50.8600 315.0000 1.0000
50.8700 295.0000 1.0000
50.8800 322.0000 1.0000
50.8900 310.0000 1.0000
50.9000 309.0000 1.0000
50.9100 317.0000 1.0000
50.9200 303.0000 1.0000
50.9300 307.0000 1.0000
50.9400 317.0000 1.0000
50.9500 312.0000 1.0000
50.9600 304.0000 1.0000
50.9700 347.0000 1.0000
50.9800 324.0000 1.0000
50.9900 334.0000 1.0000
51.0000 342.0000 1.0000
51.0100 301.0000 1.0000
51.0200 327.0000 1.0000
51.0300 324.0000 1.0000
51.0400 354.0000 1.0000
51.0500 367.0000 1.0000
51.0600 342.0000 1.0000
51.0700 363.0000 1.0000
51.0800 351.0000 1.0000
51.0900 345.0000 1.0000
51.1000 348.0000 1.0000
51.1100 344.0000 1.0000
51.1200 358.0000 1.0000
51.1300 408.0000 1.0000
51.1400 381.0000 1.0000
51.1500 379.0000 1.0000
51.1600 385.0000 1.0000
51.1700 410.0000 1.0000
51.1800 446.0000 1.0000
51.1900 483.0000 1.0000
51.2000 442.0000 1.0000
51.2100 445.0000 1.0000
51.2200 478.0000 1.0000
51.2300 527.0000 1.0000
51.2400 505.0000 1.0000
51.2500 572.0000 1.0000
51.2600 566.0000 1.0000
51.2700 632.0000 1.0000
51.2800 641.0000 1.0000
51.2900 690.0000 1.0000
51.3000 706.0000 1.0000
51.3100 758.0000 1.0000
51.3200 814.0000 1.0000
51.3300 852.0000 1.0000
51.3400 879.0000 1.0000
51.3500 992.0000 1.0000
51.3600 1045.0000 1.0000
51.3700 1172.0000 1.0000
51.3800 1273.0000 1.0000
51.3900 1386.0000 1.0000
51.4000 1501.0000 1.0000
51.4100 1598.0000 1.0000
51.4200 1759.0000 1.0000
51.4300 1804.0000 1.0000
51.4400 1969.0000 1.0000
51.4500 2006.0000 1.0000
51.4600 1994.0000 1.0000
51.4700 2152.0000 1.0000
51.4800 2134.0000 1.0000
51.4900 1986.0000 1.0000
51.5000 2047.0000 1.0000
51.5100 2005.0000 1.0000
51.5200 1924.0000 1.0000
51.5300 1841.0000 1.0000
51.5400 1845.0000 1.0000
51.5500 1719.0000 1.0000
51.5600 1642.0000 1.0000
51.5700 1680.0000 1.0000
51.5800 1626.0000 1.0000
51.5900 1593.0000 1.0000
51.6000 1572.0000 1.0000
51.6100 1521.0000 1.0000
51.6200 1477.0000 1.0000
51.6300 1389.0000 1.0000
51.6400 1380.0000 1.0000
51.6500 1197.0000 1.0000
51.6600 1122.0000 1.0000
51.6700 1038.0000 1.0000
51.6800 994.0000 1.0000
51.6900 889.0000 1.0000
51.7000 849.0000 1.0000
51.7100 786.0000 1.0000
51.7200 743.0000 1.0000
51.7300 725.0000 1.0000
51.7400 639.0000 1.0000
51.7500 664.0000 1.0000
51.7600 603.0000 1.0000
51.7700 585.0000 1.0000
51.7800 542.0000 1.0000
51.7900 554.0000 1.0000
51.8000 509.0000 1.0000
51.8100 518.0000 1.0000
51.8200 518.0000 1.0000
51.8300 488.0000 1.0000
51.8400 452.0000 1.0000
51.8500 429.0000 1.0000
51.8600 429.0000 1.0000
51.8700 444.0000 1.0000
51.8800 393.0000 1.0000
51.8900 377.0000 1.0000
51.9000 392.0000 1.0000
51.9100 411.0000 1.0000
51.9200 416.0000 1.0000
51.9300 356.0000 1.0000
51.9400 372.0000 1.0000
51.9500 335.0000 1.0000
51.9600 359.0000 1.0000
51.9700 357.0000 1.0000
51.9800 378.0000 1.0000
51.9900 371.0000 1.0000
52.0000 338.0000 1.0000
52.0100 361.0000 1.0000
52.0200 348.0000 1.0000
52.0300 339.0000 1.0000
52.0400 330.0000 1.0000
52.0500 313.0000 1.0000
52.0600 341.0000 1.0000
52.0700 306.0000 1.0000
52.0800 323.0000 1.0000
52.0900 313.0000 1.0000
52.1000 305.0000 1.0000
52.1100 322.0000 1.0000
52.1200 313.0000 1.0000
52.1300 319.0000 1.0000
52.1400 321.0000 1.0000
52.1500 336.0000 1.0000
52.1600 333.0000 1.0000
52.1700 299.0000 1.0000
52.1800 302.0000 1.0000
52.1900 341.0000 1.0000
52.2000 312.0000 1.0000
52.2100 330.0000 1.0000
52.2200 312.0000 1.0000
52.2300 348.0000 1.0000
52.2400 306.0000 1.0000
52.2500 334.0000 1.0000
52.2600 331.0000 1.0000
52.2700 315.0000 1.0000
52.2800 315.0000 1.0000
52.2900 315.0000 1.0000
52.3000 304.0000 1.0000
52.3100 337.0000 1.0000
52.3200 278.0000 1.0000
52.3300 325.0000 1.0000
52.3400 264.0000 1.0000
52.3500 312.0000 1.0000
52.3600 313.0000 1.0000
52.3700 297.0000 1.0000
52.3800 303.0000 1.0000
52.3900 316.0000 1.0000
52.4000 295.0000 1.0000
52.4100 306.0000 1.0000
52.4200 286.0000 1.0000
52.4300 309.0000 1.0000
52.4400 301.0000 1.0000
52.4500 290.0000 1.0000
52.4600 299.0000 1.0000
52.4700 303.0000 1.0000
52.4800 303.0000 1.0000
52.4900 264.0000 1.0000
52.5000 294.0000 1.0000
52.5100 318.0000 1.0000
52.5200 279.0000 1.0000
52.5300 288.0000 1.0000
52.5400 286.0000 1.0000
52.5500 293.0000 1.0000
52.5600 288.0000 1.0000
52.5700 292.0000 1.0000
52.5800 279.0000 1.0000
52.5900 288.0000 1.0000
52.6000 316.0000 1.0000
52.6100 312.0000 1.0000
52.6200 282.0000 1.0000
52.6300 304.0000 1.0000
52.6400 301.0000 1.0000
52.6500 291.0000 1.0000
52.6600 313.0000 1.0000
52.6700 287.0000 1.0000
52.6800 280.0000 1.0000
52.6900 252.0000 1.0000
52.7000 279.0000 1.0000
52.7100 277.0000 1.0000
52.7200 270.0000 1.0000
52.7300 279.0000 1.0000
52.7400 258.0000 1.0000
52.7500 266.0000 1.0000
52.7600 259.0000 1.0000
52.7700 262.0000 1.0000
52.7800 293.0000 1.0000
52.7900 287.0000 1.0000
52.8000 300.0000 1.0000
52.8100 293.0000 1.0000
52.8200 292.0000 1.0000
52.8300 288.0000 1.0000
52.8400 279.0000 1.0000
52.8500 288.0000 1.0000
52.8600 286.0000 1.0000
52.8700 277.0000 1.0000
52.8800 290.0000 1.0000
52.8900 285.0000 1.0000
52.9000 273.0000 1.0000
52.9100 283.0000 1.0000
52.9200 275.0000 1.0000
52.9300 269.0000 1.0000
52.9400 301.0000 1.0000
52.9500 283.0000 1.0000
52.9600 281.0000 1.0000
52.9700 297.0000 1.0000
52.9800 303.0000 1.0000
52.9900 269.0000 1.0000
53.0000 283.0000 1.0000
53.0100 281.0000 1.0000
53.0200 287.0000 1.0000
53.0300 296.0000 1.0000
53.0400 277.0000 1.0000
53.0500 306.0000 1.0000
53.0600 284.0000 1.0000
53.0700 277.0000 1.0000
53.0800 270.0000 1.0000
53.0900 260.0000 1.0000
53.1000 284.0000 1.0000
53.1100 265.0000 1.0000
53.1200 276.0000 1.0000
53.1300 250.0000 1.0000
53.1400 274.0000 1.0000
53.1500 271.0000 1.0000
53.1600 257.0000 1.0000
53.1700 293.0000 1.0000
53.1800 310.0000 1.0000
53.1900 283.0000 1.0000
53.2000 303.0000 1.0000
53.2100 275.0000 1.0000
53.2200 274.0000 1.0000
53.2300 297.0000 1.0000
53.2400 290.0000 1.0000
53.2500 267.0000 1.0000
53.2600 285.0000 1.0000
53.2700 284.0000 1.0000
53.2800 273.0000 1.0000
53.2900 313.0000 1.0000
53.3000 289.0000 1.0000
53.3100 284.0000 1.0000
53.3200 271.0000 1.0000
53.3300 288.0000 1.0000
53.3400 279.0000 1.0000
53.3500 296.0000 1.0000
53.3600 281.0000 1.0000
53.3700 289.0000 1.0000
53.3800 283.0000 1.0000
53.3900 285.0000 1.0000
53.4000 294.0000 1.0000
53.4100 307.0000 1.0000
53.4200 287.0000 1.0000
53.4300 293.0000 1.0000
53.4400 275.0000 1.0000
53.4500 268.0000 1.0000
53.4600 269.0000 1.0000
53.4700 291.0000 1.0000
53.4800 309.0000 1.0000
53.4900 300.0000 1.0000
53.5000 289.0000 1.0000
53.5100 281.0000 1.0000
53.5200 279.0000 1.0000
53.5300 285.0000 1.0000
53.5400 291.0000 1.0000
53.5500 274.0000 1.0000
53.5600 252.0000 1.0000
53.5700 288.0000 1.0000
53.5800 282.0000 1.0000
53.5900 257.0000 1.0000
53.6000 282.0000 1.0000
53.6100 294.0000 1.0000
53.6200 275.0000 1.0000
53.6300 278.0000 1.0000
53.6400 282.0000 1.0000
53.6500 289.0000 1.0000
53.6600 278.0000 1.0000
53.6700 294.0000 1.0000
53.6800 253.0000 1.0000
53.6900 263.0000 1.0000
53.7000 259.0000 1.0000
53.7100 288.0000 1.0000
53.7200 283.0000 1.0000
53.7300 261.0000 1.0000
53.7400 301.0000 1.0000
53.7500 294.0000 1.0000
53.7600 269.0000 1.0000
53.7700 281.0000 1.0000
53.7800 277.0000 1.0000
53.7900 286.0000 1.0000
53.8000 289.0000 1.0000
53.8100 297.0000 1.0000
53.8200 307.0000 1.0000
53.8300 298.0000 1.0000
53.8400 289.0000 1.0000
53.8500 310.0000 1.0000
53.8600 302.0000 1.0000
53.8700 292.0000 1.0000
53.8800 277.0000 1.0000
53.8900 290.0000 1.0000
53.9000 286.0000 1.0000
53.9100 318.0000 1.0000
53.9200 298.0000 1.0000
53.9300 312.0000 1.0000
53.9400 312.0000 1.0000
53.9500 301.0000 1.0000
53.9600 304.0000 1.0000
53.9700 314.0000 1.0000
53.9800 324.0000 1.0000
53.9900 318.0000 1.0000
54.0000 308.0000 1.0000
54.0100 305.0000 1.0000
54.0200 284.0000 1.0000
54.0300 299.0000 1.0000
54.0400 333.0000 1.0000
54.0500 296.0000 1.0000
54.0600 320.0000 1.0000
54.0700 297.0000 1.0000
54.0800 310.0000 1.0000
54.0900 307.0000 1.0000
54.1000 307.0000 1.0000
54.1100 326.0000 1.0000
54.1200 314.0000 1.0000
54.1300 313.0000 1.0000
54.1400 316.0000 1.0000
54.1500 294.0000 1.0000
54.1600 289.0000 1.0000
54.1700 298.0000 1.0000
54.1800 295.0000 1.0000
54.1900 291.0000 1.0000
54.2000 288.0000 1.0000
54.2100 303.0000 1.0000
54.2200 303.0000 1.0000
54.2300 291.0000 1.0000
54.2400 314.0000 1.0000
54.2500 319.0000 1.0000
54.2600 322.0000 1.0000
54.2700 311.0000 1.0000
54.2800 317.0000 1.0000
54.2900 326.0000 1.0000
54.3000 339.0000 1.0000
54.3100 326.0000 1.0000
54.3200 346.0000 1.0000
54.3300 355.0000 1.0000
54.3400 361.0000 1.0000
54.3500 376.0000 1.0000
54.3600 343.0000 1.0000
54.3700 348.0000 1.0000
54.3800 318.0000 1.0000
54.3900 392.0000 1.0000
54.4000 361.0000 1.0000
54.4100 356.0000 1.0000
54.4200 377.0000 1.0000
54.4300 415.0000 1.0000
54.4400 396.0000 1.0000
54.4500 410.0000 1.0000
54.4600 391.0000 1.0000
54.4700 423.0000 1.0000
54.4800 432.0000 1.0000
54.4900 394.0000 1.0000
54.5000 452.0000 1.0000
54.5100 423.0000 1.0000
54.5200 432.0000 1.0000
54.5300 451.0000 1.0000
54.5400 441.0000 1.0000
54.5500 464.0000 1.0000
54.5600 457.0000 1.0000
54.5700 410.0000 1.0000
54.5800 425.0000 1.0000
54.5900 419.0000 1.0000
54.6000 427.0000 1.0000
54.6100 375.0000 1.0000
54.6200 390.0000 1.0000
54.6300 409.0000 1.0000
54.6400 396.0000 1.0000
54.6500 390.0000 1.0000
54.6600 399.0000 1.0000
54.6700 393.0000 1.0000
54.6800 394.0000 1.0000
54.6900 365.0000 1.0000
54.7000 391.0000 1.0000
54.7100 352.0000 1.0000
54.7200 341.0000 1.0000
54.7300 350.0000 1.0000
54.7400 324.0000 1.0000
54.7500 328.0000 1.0000
54.7600 352.0000 1.0000
54.7700 357.0000 1.0000
54.7800 344.0000 1.0000
54.7900 317.0000 1.0000
54.8000 314.0000 1.0000
54.8100 317.0000 1.0000
54.8200 322.0000 1.0000
54.8300 312.0000 1.0000
54.8400 313.0000 1.0000
54.8500 290.0000 1.0000
54.8600 296.0000 1.0000
54.8700 291.0000 1.0000
54.8800 292.0000 1.0000
54.8900 311.0000 1.0000
54.9000 320.0000 1.0000
54.9100 306.0000 1.0000
54.9200 273.0000 1.0000
54.9300 284.0000 1.0000
54.9400 333.0000 1.0000
54.9500 305.0000 1.0000
54.9600 296.0000 1.0000
54.9700 308.0000 1.0000
54.9800 290.0000 1.0000
54.9900 304.0000 1.0000
55.0000 297.0000 1.0000
55.0100 307.0000 1.0000
55.0200 299.0000 1.0000
55.0300 279.0000 1.0000
55.0400 279.0000 1.0000
55.0500 273.0000 1.0000
55.0600 293.0000 1.0000
55.0700 269.0000 1.0000
55.0800 293.0000 1.0000
55.0900 242.0000 1.0000
55.1000 280.0000 1.0000
55.1100 284.0000 1.0000
55.1200 285.0000 1.0000
55.1300 308.0000 1.0000
55.1400 282.0000 1.0000
55.1500 273.0000 1.0000
55.1600 286.0000 1.0000
55.1700 289.0000 1.0000
55.1800 291.0000 1.0000
55.1900 281.0000 1.0000
55.2000 298.0000 1.0000
55.2100 306.0000 1.0000
55.2200 295.0000 1.0000
55.2300 282.0000 1.0000
55.2400 304.0000 1.0000
55.2500 306.0000 1.0000
55.2600 285.0000 1.0000
55.2700 301.0000 1.0000
55.2800 277.0000 1.0000
55.2900 255.0000 1.0000
55.3000 300.0000 1.0000
55.3100 268.0000 1.0000
55.3200 248.0000 1.0000
55.3300 295.0000 1.0000
55.3400 293.0000 1.0000
55.3500 280.0000 1.0000
55.3600 297.0000 1.0000
55.3700 264.0000 1.0000
55.3800 297.0000 1.0000
55.3900 305.0000 1.0000
55.4000 260.0000 1.0000
55.4100 265.0000 1.0000
55.4200 237.0000 1.0000
55.4300 283.0000 1.0000
55.4400 262.0000 1.0000
55.4500 235.0000 1.0000
55.4600 274.0000 1.0000
55.4700 251.0000 1.0000
55.4800 260.0000 1.0000
55.4900 256.0000 1.0000
55.5000 267.0000 1.0000
55.5100 255.0000 1.0000
55.5200 280.0000 1.0000
55.5300 281.0000 1.0000
55.5400 291.0000 1.0000
55.5500 286.0000 1.0000
55.5600 266.0000 1.0000
55.5700 264.0000 1.0000
55.5800 268.0000 1.0000
55.5900 288.0000 1.0000
55.6000 269.0000 1.0000
55.6100 260.0000 1.0000
55.6200 263.0000 1.0000
55.6300 282.0000 1.0000
55.6400 285.0000 1.0000
55.6500 272.0000 1.0000
55.6600 253.0000 1.0000
55.6700 251.0000 1.0000
55.6800 268.0000 1.0000
55.6900 284.0000 1.0000
55.7000 283.0000 1.0000
55.7100 260.0000 1.0000
55.7200 268.0000 1.0000
55.7300 267.0000 1.0000
55.7400 270.0000 1.0000
55.7500 268.0000 1.0000
55.7600 299.0000 1.0000
55.7700 265.0000 1.0000
55.7800 285.0000 1.0000
55.7900 278.0000 1.0000
55.8000 253.0000 1.0000
55.8100 250.0000 1.0000
55.8200 249.0000 1.0000
55.8300 227.0000 1.0000
55.8400 271.0000 1.0000
55.8500 269.0000 1.0000
55.8600 276.0000 1.0000
55.8700 249.0000 1.0000
55.8800 262.0000 1.0000
55.8900 285.0000 1.0000
55.9000 292.0000 1.0000
55.9100 261.0000 1.0000
55.9200 252.0000 1.0000
55.9300 245.0000 1.0000
55.9400 275.0000 1.0000
55.9500 263.0000 1.0000
55.9600 281.0000 1.0000
55.9700 249.0000 1.0000
55.9800 295.0000 1.0000
55.9900 270.0000 1.0000
56.0000 256.0000 1.0000
56.0100 264.0000 1.0000
56.0200 280.0000 1.0000
56.0300 257.0000 1.0000
56.0400 229.0000 1.0000
56.0500 284.0000 1.0000
56.0600 233.0000 1.0000
56.0700 278.0000 1.0000
56.0800 258.0000 1.0000
56.0900 253.0000 1.0000
56.1000 282.0000 1.0000
56.1100 303.0000 1.0000
56.1200 272.0000 1.0000
56.1300 258.0000 1.0000
56.1400 284.0000 1.0000
56.1500 249.0000 1.0000
56.1600 251.0000 1.0000
56.1700 245.0000 1.0000
56.1800 232.0000 1.0000
56.1900 269.0000 1.0000
56.2000 255.0000 1.0000
56.2100 267.0000 1.0000
56.2200 253.0000 1.0000
56.2300 256.0000 1.0000
56.2400 290.0000 1.0000
56.2500 274.0000 1.0000
56.2600 255.0000 1.0000
56.2700 257.0000 1.0000
56.2800 274.0000 1.0000
56.2900 250.0000 1.0000
56.3000 261.0000 1.0000
56.3100 285.0000 1.0000
56.3200 290.0000 1.0000
56.3300 271.0000 1.0000
56.3400 256.0000 1.0000
56.3500 274.0000 1.0000
56.3600 277.0000 1.0000
56.3700 272.0000 1.0000
56.3800 284.0000 1.0000
56.3900 255.0000 1.0000
56.4000 277.0000 1.0000
56.4100 265.0000 1.0000
56.4200 265.0000 1.0000
56.4300 255.0000 1.0000
56.4400 268.0000 1.0000
56.4500 258.0000 1.0000
56.4600 262.0000 1.0000
56.4700 284.0000 1.0000
56.4800 261.0000 1.0000
56.4900 291.0000 1.0000
56.5000 277.0000 1.0000
56.5100 249.0000 1.0000
56.5200 266.0000 1.0000
56.5300 279.0000 1.0000
56.5400 268.0000 1.0000
56.5500 265.0000 1.0000
56.5600 264.0000 1.0000
56.5700 251.0000 1.0000
56.5800 250.0000 1.0000
56.5900 271.0000 1.0000
56.6000 262.0000 1.0000
56.6100 262.0000 1.0000
56.6200 275.0000 1.0000
56.6300 237.0000 1.0000
56.6400 258.0000 1.0000
56.6500 258.0000 1.0000
56.6600 269.0000 1.0000
56.6700 298.0000 1.0000
56.6800 250.0000 1.0000
56.6900 250.0000 1.0000
56.7000 252.0000 1.0000
56.7100 239.0000 1.0000
56.7200 251.0000 1.0000
56.7300 268.0000 1.0000
56.7400 233.0000 1.0000
56.7500 264.0000 1.0000
56.7600 280.0000 1.0000
56.7700 276.0000 1.0000
56.7800 258.0000 1.0000
56.7900 268.0000 1.0000
56.8000 251.0000 1.0000
56.8100 247.0000 1.0000
56.8200 269.0000 1.0000
56.8300 261.0000 1.0000
56.8400 255.0000 1.0000
56.8500 250.0000 1.0000
56.8600 242.0000 1.0000
56.8700 251.0000 1.0000
56.8800 266.0000 1.0000
56.8900 277.0000 1.0000
56.9000 277.0000 1.0000
56.9100 271.0000 1.0000
56.9200 265.0000 1.0000
56.9300 235.0000 1.0000
56.9400 289.0000 1.0000
56.9500 262.0000 1.0000
56.9600 263.0000 1.0000
56.9700 253.0000 1.0000
56.9800 271.0000 1.0000
56.9900 278.0000 1.0000
57.0000 284.0000 1.0000
57.0100 272.0000 1.0000
57.0200 279.0000 1.0000
57.0300 247.0000 1.0000
57.0400 291.0000 1.0000
57.0500 289.0000 1.0000
57.0600 253.0000 1.0000
57.0700 286.0000 1.0000
57.0800 261.0000 1.0000
57.0900 265.0000 1.0000
57.1000 275.0000 1.0000
57.1100 273.0000 1.0000
57.1200 249.0000 1.0000
57.1300 268.0000 1.0000
57.1400 276.0000 1.0000
57.1500 279.0000 1.0000
57.1600 266.0000 1.0000
57.1700 285.0000 1.0000
57.1800 299.0000 1.0000
57.1900 268.0000 1.0000
57.2000 260.0000 1.0000
57.2100 296.0000 1.0000
57.2200 290.0000 1.0000
57.2300 292.0000 1.0000
57.2400 246.0000 1.0000
57.2500 262.0000 1.0000
57.2600 255.0000 1.0000
57.2700 276.0000 1.0000
57.2800 262.0000 1.0000
57.2900 252.0000 1.0000
57.3000 248.0000 1.0000
57.3100 269.0000 1.0000
57.3200 250.0000 1.0000
57.3300 271.0000 1.0000
57.3400 270.0000 1.0000
57.3500 264.0000 1.0000
57.3600 274.0000 1.0000
57.3700 262.0000 1.0000
57.3800 297.0000 1.0000
57.3900 276.0000 1.0000
57.4000 290.0000 1.0000
57.4100 265.0000 1.0000
57.4200 270.0000 1.0000
57.4300 273.0000 1.0000
57.4400 268.0000 1.0000
57.4500 281.0000 1.0000
57.4600 270.0000 1.0000
57.4700 269.0000 1.0000
57.4800 282.0000 1.0000
57.4900 272.0000 1.0000
57.5000 264.0000 1.0000
57.5100 286.0000 1.0000
57.5200 268.0000 1.0000
57.5300 293.0000 1.0000
57.5400 277.0000 1.0000
57.5500 282.0000 1.0000
57.5600 285.0000 1.0000
57.5700 262.0000 1.0000
57.5800 250.0000 1.0000
57.5900 288.0000 1.0000
57.6000 275.0000 1.0000
57.6100 276.0000 1.0000
57.6200 267.0000 1.0000
57.6300 265.0000 1.0000
57.6400 263.0000 1.0000
57.6500 268.0000 1.0000
57.6600 260.0000 1.0000
57.6700 288.0000 1.0000
57.6800 246.0000 1.0000
57.6900 285.0000 1.0000
57.7000 283.0000 1.0000
57.7100 270.0000 1.0000
57.7200 285.0000 1.0000
57.7300 268.0000 1.0000
57.7400 265.0000 1.0000
57.7500 256.0000 1.0000
57.7600 258.0000 1.0000
57.7700 266.0000 1.0000
57.7800 257.0000 1.0000
57.7900 270.0000 1.0000
57.8000 244.0000 1.0000
57.8100 252.0000 1.0000
57.8200 290.0000 1.0000
57.8300 268.0000 1.0000
57.8400 263.0000 1.0000
57.8500 241.0000 1.0000
57.8600 260.0000 1.0000
57.8700 286.0000 1.0000
57.8800 290.0000 1.0000
57.8900 279.0000 1.0000
57.9000 262.0000 1.0000
57.9100 283.0000 1.0000
57.9200 261.0000 1.0000
57.9300 270.0000 1.0000
57.9400 282.0000 1.0000
57.9500 276.0000 1.0000
57.9600 280.0000 1.0000
57.9700 284.0000 1.0000
57.9800 275.0000 1.0000
57.9900 265.0000 1.0000
58.0000 279.0000 1.0000
58.0100 282.0000 1.0000
58.0200 275.0000 1.0000
58.0300 285.0000 1.0000
58.0400 275.0000 1.0000
58.0500 264.0000 1.0000
58.0600 265.0000 1.0000
58.0700 292.0000 1.0000
58.0800 251.0000 1.0000
58.0900 256.0000 1.0000
58.1000 273.0000 1.0000
58.1100 260.0000 1.0000
58.1200 251.0000 1.0000
58.1300 286.0000 1.0000
58.1400 276.0000 1.0000
58.1500 247.0000 1.0000
58.1600 291.0000 1.0000
58.1700 277.0000 1.0000
58.1800 286.0000 1.0000
58.1900 277.0000 1.0000
58.2000 268.0000 1.0000
58.2100 275.0000 1.0000
58.2200 247.0000 1.0000
58.2300 268.0000 1.0000
58.2400 251.0000 1.0000
58.2500 233.0000 1.0000
58.2600 277.0000 1.0000
58.2700 285.0000 1.0000
58.2800 249.0000 1.0000
58.2900 271.0000 1.0000
58.3000 275.0000 1.0000
58.3100 262.0000 1.0000
58.3200 256.0000 1.0000
58.3300 264.0000 1.0000
58.3400 238.0000 1.0000
58.3500 273.0000 1.0000
58.3600 254.0000 1.0000
58.3700 247.0000 1.0000
58.3800 246.0000 1.0000
58.3900 264.0000 1.0000
58.4000 276.0000 1.0000
58.4100 278.0000 1.0000
58.4200 277.0000 1.0000
58.4300 271.0000 1.0000
58.4400 286.0000 1.0000
58.4500 270.0000 1.0000
58.4600 258.0000 1.0000
58.4700 276.0000 1.0000
58.4800 263.0000 1.0000
58.4900 277.0000 1.0000
58.5000 289.0000 1.0000
58.5100 263.0000 1.0000
58.5200 265.0000 1.0000
58.5300 262.0000 1.0000
58.5400 256.0000 1.0000
58.5500 244.0000 1.0000
58.5600 261.0000 1.0000
58.5700 261.0000 1.0000
58.5800 270.0000 1.0000
58.5900 269.0000 1.0000
58.6000 238.0000 1.0000
58.6100 282.0000 1.0000
58.6200 263.0000 1.0000
58.6300 254.0000 1.0000
58.6400 292.0000 1.0000
58.6500 272.0000 1.0000
58.6600 282.0000 1.0000
58.6700 274.0000 1.0000
58.6800 284.0000 1.0000
58.6900 281.0000 1.0000
58.7000 262.0000 1.0000
58.7100 273.0000 1.0000
58.7200 264.0000 1.0000
58.7300 278.0000 1.0000
58.7400 259.0000 1.0000
58.7500 264.0000 1.0000
58.7600 266.0000 1.0000
58.7700 262.0000 1.0000
58.7800 263.0000 1.0000
58.7900 280.0000 1.0000
58.8000 279.0000 1.0000
58.8100 266.0000 1.0000
58.8200 255.0000 1.0000
58.8300 263.0000 1.0000
58.8400 275.0000 1.0000
58.8500 256.0000 1.0000
58.8600 238.0000 1.0000
58.8700 250.0000 1.0000
58.8800 268.0000 1.0000
58.8900 259.0000 1.0000
58.9000 256.0000 1.0000
58.9100 247.0000 1.0000
58.9200 251.0000 1.0000
58.9300 277.0000 1.0000
58.9400 248.0000 1.0000
58.9500 286.0000 1.0000
58.9600 247.0000 1.0000
58.9700 275.0000 1.0000
58.9800 296.0000 1.0000
58.9900 236.0000 1.0000
59.0000 263.0000 1.0000
59.0100 273.0000 1.0000
59.0200 261.0000 1.0000
59.0300 258.0000 1.0000
59.0400 266.0000 1.0000
59.0500 259.0000 1.0000
59.0600 283.0000 1.0000
59.0700 257.0000 1.0000
59.0800 281.0000 1.0000
59.0900 283.0000 1.0000
59.1000 286.0000 1.0000
59.1100 284.0000 1.0000
59.1200 259.0000 1.0000
59.1300 268.0000 1.0000
59.1400 284.0000 1.0000
59.1500 262.0000 1.0000
59.1600 275.0000 1.0000
59.1700 262.0000 1.0000
59.1800 263.0000 1.0000
59.1900 274.0000 1.0000
59.2000 269.0000 1.0000
59.2100 288.0000 1.0000
59.2200 264.0000 1.0000
59.2300 268.0000 1.0000
59.2400 262.0000 1.0000
59.2500 272.0000 1.0000
59.2600 258.0000 1.0000
59.2700 273.0000 1.0000
59.2800 238.0000 1.0000
59.2900 254.0000 1.0000
59.3000 289.0000 1.0000
59.3100 256.0000 1.0000
59.3200 236.0000 1.0000
59.3300 249.0000 1.0000
59.3400 257.0000 1.0000
59.3500 256.0000 1.0000
59.3600 238.0000 1.0000
59.3700 256.0000 1.0000
59.3800 281.0000 1.0000
59.3900 260.0000 1.0000
59.4000 288.0000 1.0000
59.4100 244.0000 1.0000
59.4200 283.0000 1.0000
59.4300 267.0000 1.0000
59.4400 243.0000 1.0000
59.4500 270.0000 1.0000
59.4600 269.0000 1.0000
59.4700 266.0000 1.0000
59.4800 263.0000 1.0000
59.4900 269.0000 1.0000
59.5000 240.0000 1.0000
59.5100 284.0000 1.0000
59.5200 268.0000 1.0000
59.5300 265.0000 1.0000
59.5400 252.0000 1.0000
59.5500 276.0000 1.0000
59.5600 254.0000 1.0000
59.5700 248.0000 1.0000
59.5800 259.0000 1.0000
59.5900 301.0000 1.0000
59.6000 273.0000 1.0000
59.6100 264.0000 1.0000
59.6200 267.0000 1.0000
59.6300 274.0000 1.0000
59.6400 253.0000 1.0000
59.6500 282.0000 1.0000
59.6600 264.0000 1.0000
59.6700 261.0000 1.0000
59.6800 243.0000 1.0000
59.6900 261.0000 1.0000
59.7000 266.0000 1.0000
59.7100 279.0000 1.0000
59.7200 278.0000 1.0000
59.7300 274.0000 1.0000
59.7400 254.0000 1.0000
59.7500 268.0000 1.0000
59.7600 246.0000 1.0000
59.7700 243.0000 1.0000
59.7800 260.0000 1.0000
59.7900 271.0000 1.0000
59.8000 251.0000 1.0000
59.8100 252.0000 1.0000
59.8200 268.0000 1.0000
59.8300 242.0000 1.0000
59.8400 238.0000 1.0000
59.8500 261.0000 1.0000
59.8600 258.0000 1.0000
59.8700 247.0000 1.0000
59.8800 268.0000 1.0000
59.8900 282.0000 1.0000
59.9000 253.0000 1.0000
59.9100 247.0000 1.0000
59.9200 266.0000 1.0000
59.9300 255.0000 1.0000
59.9400 262.0000 1.0000
59.9500 267.0000 1.0000
59.9600 269.0000 1.0000
59.9700 254.0000 1.0000
59.9800 278.0000 1.0000
59.9900 273.0000 1.0000
60.0000 253.0000 1.0000
60.0100 284.0000 1.0000
60.0200 255.0000 1.0000
60.0300 263.0000 1.0000
60.0400 260.0000 1.0000
60.0500 248.0000 1.0000
60.0600 260.0000 1.0000
60.0700 266.0000 1.0000
60.0800 277.0000 1.0000
60.0900 276.0000 1.0000
60.1000 240.0000 1.0000
60.1100 262.0000 1.0000
60.1200 269.0000 1.0000
60.1300 269.0000 1.0000
60.1400 272.0000 1.0000
60.1500 243.0000 1.0000
60.1600 240.0000 1.0000
60.1700 257.0000 1.0000
60.1800 258.0000 1.0000
60.1900 280.0000 1.0000
60.2000 262.0000 1.0000
60.2100 249.0000 1.0000
60.2200 274.0000 1.0000
60.2300 256.0000 1.0000
60.2400 250.0000 1.0000
60.2500 265.0000 1.0000
60.2600 272.0000 1.0000
60.2700 271.0000 1.0000
60.2800 239.0000 1.0000
60.2900 283.0000 1.0000
60.3000 277.0000 1.0000
60.3100 270.0000 1.0000
60.3200 259.0000 1.0000
60.3300 283.0000 1.0000
60.3400 269.0000 1.0000
60.3500 251.0000 1.0000
60.3600 266.0000 1.0000
60.3700 273.0000 1.0000
60.3800 253.0000 1.0000
60.3900 254.0000 1.0000
60.4000 262.0000 1.0000
60.4100 249.0000 1.0000
60.4200 254.0000 1.0000
60.4300 256.0000 1.0000
60.4400 278.0000 1.0000
60.4500 283.0000 1.0000
60.4600 271.0000 1.0000
60.4700 257.0000 1.0000
60.4800 277.0000 1.0000
60.4900 260.0000 1.0000
60.5000 253.0000 1.0000
60.5100 262.0000 1.0000
60.5200 283.0000 1.0000
60.5300 265.0000 1.0000
60.5400 249.0000 1.0000
60.5500 269.0000 1.0000
60.5600 286.0000 1.0000
60.5700 269.0000 1.0000
60.5800 273.0000 1.0000
60.5900 264.0000 1.0000
60.6000 272.0000 1.0000
60.6100 270.0000 1.0000
60.6200 251.0000 1.0000
60.6300 254.0000 1.0000
60.6400 256.0000 1.0000
60.6500 254.0000 1.0000
60.6600 269.0000 1.0000
60.6700 241.0000 1.0000
60.6800 271.0000 1.0000
60.6900 273.0000 1.0000
60.7000 263.0000 1.0000
60.7100 253.0000 1.0000
60.7200 244.0000 1.0000
60.7300 241.0000 1.0000
60.7400 268.0000 1.0000
60.7500 282.0000 1.0000
60.7600 281.0000 1.0000
60.7700 284.0000 1.0000
60.7800 279.0000 1.0000
60.7900 266.0000 1.0000
60.8000 232.0000 1.0000
60.8100 255.0000 1.0000
60.8200 275.0000 1.0000
60.8300 266.0000 1.0000
60.8400 280.0000 1.0000
60.8500 257.0000 1.0000
60.8600 283.0000 1.0000
60.8700 268.0000 1.0000
60.8800 259.0000 1.0000
60.8900 269.0000 1.0000
60.9000 280.0000 1.0000
60.9100 311.0000 1.0000
60.9200 273.0000 1.0000
60.9300 282.0000 1.0000
60.9400 288.0000 1.0000
60.9500 279.0000 1.0000
60.9600 274.0000 1.0000
60.9700 273.0000 1.0000
60.9800 264.0000 1.0000
60.9900 295.0000 1.0000
61.0000 287.0000 1.0000
61.0100 291.0000 1.0000
61.0200 282.0000 1.0000
61.0300 288.0000 1.0000
61.0400 275.0000 1.0000
61.0500 277.0000 1.0000
61.0600 263.0000 1.0000
61.0700 278.0000 1.0000
61.0800 268.0000 1.0000
61.0900 323.0000 1.0000
61.1000 269.0000 1.0000
61.1100 312.0000 1.0000
61.1200 284.0000 1.0000
61.1300 294.0000 1.0000
61.1400 318.0000 1.0000
61.1500 342.0000 1.0000
61.1600 322.0000 1.0000
61.1700 311.0000 1.0000
61.1800 296.0000 1.0000
61.1900 297.0000 1.0000
61.2000 309.0000 1.0000
61.2100 324.0000 1.0000
61.2200 337.0000 1.0000
61.2300 312.0000 1.0000
61.2400 300.0000 1.0000
61.2500 325.0000 1.0000
61.2600 335.0000 1.0000
61.2700 335.0000 1.0000
61.2800 355.0000 1.0000
61.2900 356.0000 1.0000
61.3000 364.0000 1.0000
61.3100 356.0000 1.0000
61.3200 406.0000 1.0000
61.3300 409.0000 1.0000
61.3400 402.0000 1.0000
61.3500 421.0000 1.0000
61.3600 415.0000 1.0000
61.3700 420.0000 1.0000
61.3800 480.0000 1.0000
61.3900 442.0000 1.0000
61.4000 472.0000 1.0000
61.4100 478.0000 1.0000
61.4200 486.0000 1.0000
61.4300 491.0000 1.0000
61.4400 520.0000 1.0000
61.4500 506.0000 1.0000
61.4600 541.0000 1.0000
61.4700 551.0000 1.0000
61.4800 533.0000 1.0000
61.4900 543.0000 1.0000
61.5000 567.0000 1.0000
61.5100 595.0000 1.0000
61.5200 545.0000 1.0000
61.5300 569.0000 1.0000
61.5400 593.0000 1.0000
61.5500 581.0000 1.0000
61.5600 525.0000 1.0000
61.5700 541.0000 1.0000
61.5800 540.0000 1.0000
61.5900 570.0000 1.0000
61.6000 529.0000 1.0000
61.6100 538.0000 1.0000
61.6200 551.0000 1.0000
61.6300 558.0000 1.0000
61.6400 550.0000 1.0000
61.6500 520.0000 1.0000
61.6600 545.0000 1.0000
61.6700 512.0000 1.0000
61.6800 474.0000 1.0000
61.6900 480.0000 1.0000
61.7000 468.0000 1.0000
61.7100 418.0000 1.0000
61.7200 464.0000 1.0000
61.7300 466.0000 1.0000
61.7400 466.0000 1.0000
61.7500 434.0000 1.0000
61.7600 442.0000 1.0000
61.7700 391.0000 1.0000
61.7800 382.0000 1.0000
61.7900 419.0000 1.0000
61.8000 417.0000 1.0000
61.8100 427.0000 1.0000
61.8200 363.0000 1.0000
61.8300 383.0000 1.0000
61.8400 396.0000 1.0000
61.8500 355.0000 1.0000
61.8600 386.0000 1.0000
61.8700 375.0000 1.0000
61.8800 352.0000 1.0000
61.8900 336.0000 1.0000
61.9000 332.0000 1.0000
61.9100 352.0000 1.0000
61.9200 339.0000 1.0000
61.9300 337.0000 1.0000
61.9400 348.0000 1.0000
61.9500 327.0000 1.0000
61.9600 334.0000 1.0000
61.9700 323.0000 1.0000
61.9800 314.0000 1.0000
61.9900 330.0000 1.0000
62.0000 310.0000 1.0000
62.0100 331.0000 1.0000
62.0200 308.0000 1.0000
62.0300 302.0000 1.0000
62.0400 313.0000 1.0000
62.0500 282.0000 1.0000
62.0600 296.0000 1.0000
62.0700 296.0000 1.0000
62.0800 310.0000 1.0000
62.0900 296.0000 1.0000
62.1000 290.0000 1.0000
62.1100 300.0000 1.0000
62.1200 273.0000 1.0000
62.1300 291.0000 1.0000
62.1400 296.0000 1.0000
62.1500 294.0000 1.0000
62.1600 270.0000 1.0000
62.1700 260.0000 1.0000
62.1800 321.0000 1.0000
62.1900 291.0000 1.0000
62.2000 296.0000 1.0000
62.2100 295.0000 1.0000
62.2200 302.0000 1.0000
62.2300 297.0000 1.0000
62.2400 311.0000 1.0000
62.2500 284.0000 1.0000
62.2600 279.0000 1.0000
62.2700 294.0000 1.0000
62.2800 305.0000 1.0000
62.2900 289.0000 1.0000
62.3000 291.0000 1.0000
62.3100 322.0000 1.0000
62.3200 291.0000 1.0000
62.3300 278.0000 1.0000
62.3400 294.0000 1.0000
62.3500 282.0000 1.0000
62.3600 273.0000 1.0000
62.3700 260.0000 1.0000
62.3800 289.0000 1.0000
62.3900 285.0000 1.0000
62.4000 284.0000 1.0000
62.4100 316.0000 1.0000
62.4200 312.0000 1.0000
62.4300 270.0000 1.0000
62.4400 300.0000 1.0000
62.4500 300.0000 1.0000
62.4600 272.0000 1.0000
62.4700 288.0000 1.0000
62.4800 288.0000 1.0000
62.4900 282.0000 1.0000
62.5000 296.0000 1.0000
62.5100 305.0000 1.0000
62.5200 299.0000 1.0000
62.5300 312.0000 1.0000
62.5400 284.0000 1.0000
62.5500 289.0000 1.0000
62.5600 279.0000 1.0000
62.5700 268.0000 1.0000
62.5800 257.0000 1.0000
62.5900 243.0000 1.0000
62.6000 274.0000 1.0000
62.6100 270.0000 1.0000
62.6200 263.0000 1.0000
62.6300 269.0000 1.0000
62.6400 271.0000 1.0000
62.6500 250.0000 1.0000
62.6600 244.0000 1.0000
62.6700 248.0000 1.0000
62.6800 280.0000 1.0000
62.6900 280.0000 1.0000
62.7000 272.0000 1.0000
62.7100 264.0000 1.0000
62.7200 261.0000 1.0000
62.7300 265.0000 1.0000
62.7400 283.0000 1.0000
62.7500 267.0000 1.0000
62.7600 264.0000 1.0000
62.7700 247.0000 1.0000
62.7800 275.0000 1.0000
62.7900 278.0000 1.0000
62.8000 254.0000 1.0000
62.8100 268.0000 1.0000
62.8200 227.0000 1.0000
62.8300 244.0000 1.0000
62.8400 265.0000 1.0000
62.8500 262.0000 1.0000
62.8600 254.0000 1.0000
62.8700 236.0000 1.0000
62.8800 263.0000 1.0000
62.8900 242.0000 1.0000
62.9000 248.0000 1.0000
62.9100 253.0000 1.0000
62.9200 254.0000 1.0000
62.9300 258.0000 1.0000
62.9400 281.0000 1.0000
62.9500 268.0000 1.0000
62.9600 265.0000 1.0000
62.9700 254.0000 1.0000
62.9800 264.0000 1.0000
62.9900 242.0000 1.0000
63.0000 260.0000 1.0000
63.0100 281.0000 1.0000
63.0200 259.0000 1.0000
63.0300 273.0000 1.0000
63.0400 260.0000 1.0000
63.0500 247.0000 1.0000
63.0600 271.0000 1.0000
63.0700 271.0000 1.0000
63.0800 259.0000 1.0000
63.0900 283.0000 1.0000
63.1000 253.0000 1.0000
63.1100 253.0000 1.0000
63.1200 266.0000 1.0000
63.1300 257.0000 1.0000
63.1400 263.0000 1.0000
63.1500 258.0000 1.0000
63.1600 227.0000 1.0000
63.1700 274.0000 1.0000
63.1800 257.0000 1.0000
63.1900 248.0000 1.0000
63.2000 250.0000 1.0000
63.2100 252.0000 1.0000
63.2200 266.0000 1.0000
63.2300 293.0000 1.0000
63.2400 270.0000 1.0000
63.2500 240.0000 1.0000
63.2600 257.0000 1.0000
63.2700 287.0000 1.0000
63.2800 284.0000 1.0000
63.2900 252.0000 1.0000
63.3000 258.0000 1.0000
63.3100 260.0000 1.0000
63.3200 271.0000 1.0000
63.3300 253.0000 1.0000
63.3400 278.0000 1.0000
63.3500 291.0000 1.0000
63.3600 267.0000 1.0000
63.3700 260.0000 1.0000
63.3800 250.0000 1.0000
63.3900 258.0000 1.0000
63.4000 251.0000 1.0000
63.4100 272.0000 1.0000
63.4200 261.0000 1.0000
63.4300 255.0000 1.0000
63.4400 257.0000 1.0000
63.4500 278.0000 1.0000
63.4600 277.0000 1.0000
63.4700 262.0000 1.0000
63.4800 281.0000 1.0000
63.4900 275.0000 1.0000
63.5000 254.0000 1.0000
63.5100 253.0000 1.0000
63.5200 287.0000 1.0000
63.5300 250.0000 1.0000
63.5400 282.0000 1.0000
63.5500 288.0000 1.0000
63.5600 288.0000 1.0000
63.5700 282.0000 1.0000
63.5800 291.0000 1.0000
63.5900 271.0000 1.0000
63.6000 304.0000 1.0000
63.6100 275.0000 1.0000
63.6200 262.0000 1.0000
63.6300 266.0000 1.0000
63.6400 298.0000 1.0000
63.6500 270.0000 1.0000
63.6600 251.0000 1.0000
63.6700 280.0000 1.0000
63.6800 293.0000 1.0000
63.6900 288.0000 1.0000
63.7000 278.0000 1.0000
63.7100 298.0000 1.0000
63.7200 313.0000 1.0000
63.7300 286.0000 1.0000
63.7400 285.0000 1.0000
63.7500 329.0000 1.0000
63.7600 308.0000 1.0000
63.7700 309.0000 1.0000
63.7800 302.0000 1.0000
63.7900 316.0000 1.0000
63.8000 323.0000 1.0000
63.8100 347.0000 1.0000
63.8200 332.0000 1.0000
63.8300 337.0000 1.0000
63.8400 344.0000 1.0000
63.8500 350.0000 1.0000
63.8600 348.0000 1.0000
63.8700 348.0000 1.0000
63.8800 390.0000 1.0000
63.8900 409.0000 1.0000
63.9000 414.0000 1.0000
63.9100 370.0000 1.0000
63.9200 375.0000 1.0000
63.9300 406.0000 1.0000
63.9400 403.0000 1.0000
63.9500 387.0000 1.0000
63.9600 418.0000 1.0000
63.9700 374.0000 1.0000
63.9800 353.0000 1.0000
63.9900 374.0000 1.0000
64.0000 376.0000 1.0000
64.0100 355.0000 1.0000
64.0200 379.0000 1.0000
64.0300 349.0000 1.0000
64.0400 381.0000 1.0000
64.0500 382.0000 1.0000
64.0600 354.0000 1.0000
64.0700 363.0000 1.0000
64.0800 355.0000 1.0000
64.0900 361.0000 1.0000
64.1000 376.0000 1.0000
64.1100 330.0000 1.0000
64.1200 310.0000 1.0000
64.1300 357.0000 1.0000
64.1400 352.0000 1.0000
64.1500 343.0000 1.0000
64.1600 323.0000 1.0000
64.1700 332.0000 1.0000
64.1800 327.0000 1.0000
64.1900 305.0000 1.0000
64.2000 336.0000 1.0000
64.2100 320.0000 1.0000
64.2200 288.0000 1.0000
64.2300 289.0000 1.0000
64.2400 308.0000 1.0000
64.2500 287.0000 1.0000
64.2600 326.0000 1.0000
64.2700 305.0000 1.0000
64.2800 281.0000 1.0000
64.2900 303.0000 1.0000
64.3000 290.0000 1.0000
64.3100 274.0000 1.0000
64.3200 336.0000 1.0000
64.3300 294.0000 1.0000
64.3400 270.0000 1.0000
64.3500 282.0000 1.0000
64.3600 271.0000 1.0000
64.3700 295.0000 1.0000
64.3800 282.0000 1.0000
64.3900 280.0000 1.0000
64.4000 277.0000 1.0000
64.4100 265.0000 1.0000
64.4200 276.0000 1.0000
64.4300 314.0000 1.0000
64.4400 301.0000 1.0000
64.4500 287.0000 1.0000
64.4600 283.0000 1.0000
64.4700 293.0000 1.0000
64.4800 287.0000 1.0000
64.4900 282.0000 1.0000
64.5000 265.0000 1.0000
64.5100 280.0000 1.0000
64.5200 287.0000 1.0000
64.5300 265.0000 1.0000
64.5400 257.0000 1.0000
64.5500 283.0000 1.0000
64.5600 267.0000 1.0000
64.5700 303.0000 1.0000
64.5800 274.0000 1.0000
64.5900 277.0000 1.0000
64.6000 278.0000 1.0000
64.6100 279.0000 1.0000
64.6200 280.0000 1.0000
64.6300 274.0000 1.0000
64.6400 306.0000 1.0000
64.6500 287.0000 1.0000
64.6600 287.0000 1.0000
64.6700 242.0000 1.0000
64.6800 265.0000 1.0000
64.6900 261.0000 1.0000
64.7000 270.0000 1.0000
64.7100 295.0000 1.0000
64.7200 292.0000 1.0000
64.7300 251.0000 1.0000
64.7400 262.0000 1.0000
64.7500 273.0000 1.0000
64.7600 285.0000 1.0000
64.7700 314.0000 1.0000
64.7800 297.0000 1.0000
64.7900 268.0000 1.0000
64.8000 278.0000 1.0000
64.8100 288.0000 1.0000
64.8200 283.0000 1.0000
64.8300 254.0000 1.0000
64.8400 272.0000 1.0000
64.8500 244.0000 1.0000
64.8600 285.0000 1.0000
64.8700 292.0000 1.0000
64.8800 275.0000 1.0000
64.8900 276.0000 1.0000
64.9000 300.0000 1.0000
64.9100 260.0000 1.0000
64.9200 289.0000 1.0000
64.9300 265.0000 1.0000
64.9400 286.0000 1.0000
64.9500 283.0000 1.0000
64.9600 269.0000 1.0000
64.9700 308.0000 1.0000
64.9800 270.0000 1.0000
64.9900 279.0000 1.0000
65.0000 287.0000 1.0000
65.0100 291.0000 1.0000
65.0200 291.0000 1.0000
65.0300 284.0000 1.0000
65.0400 282.0000 1.0000
65.0500 327.0000 1.0000
65.0600 321.0000 1.0000
65.0700 286.0000 1.0000
65.0800 289.0000 1.0000
65.0900 293.0000 1.0000
65.1000 301.0000 1.0000
65.1100 300.0000 1.0000
65.1200 328.0000 1.0000
65.1300 298.0000 1.0000
65.1400 336.0000 1.0000
65.1500 342.0000 1.0000
65.1600 371.0000 1.0000
65.1700 322.0000 1.0000
65.1800 338.0000 1.0000
65.1900 353.0000 1.0000
65.2000 344.0000 1.0000
65.2100 376.0000 1.0000
65.2200 360.0000 1.0000
65.2300 385.0000 1.0000
65.2400 395.0000 1.0000
65.2500 387.0000 1.0000
65.2600 404.0000 1.0000
65.2700 413.0000 1.0000
65.2800 417.0000 1.0000
65.2900 450.0000 1.0000
65.3000 461.0000 1.0000
65.3100 443.0000 1.0000
65.3200 449.0000 1.0000
65.3300 526.0000 1.0000
65.3400 532.0000 1.0000
65.3500 540.0000 1.0000
65.3600 611.0000 1.0000
65.3700 616.0000 1.0000
65.3800 603.0000 1.0000
65.3900 629.0000 1.0000
65.4000 669.0000 1.0000
65.4100 725.0000 1.0000
65.4200 774.0000 1.0000
65.4300 813.0000 1.0000
65.4400 808.0000 1.0000
65.4500 883.0000 1.0000
65.4600 908.0000 1.0000
65.4700 905.0000 1.0000
65.4800 917.0000 1.0000
65.4900 940.0000 1.0000
65.5000 991.0000 1.0000
65.5100 957.0000 1.0000
65.5200 983.0000 1.0000
65.5300 946.0000 1.0000
65.5400 995.0000 1.0000
65.5500 983.0000 1.0000
65.5600 965.0000 1.0000
65.5700 954.0000 1.0000
65.5800 973.0000 1.0000
65.5900 941.0000 1.0000
65.6000 897.0000 1.0000
65.6100 896.0000 1.0000
65.6200 893.0000 1.0000
65.6300 855.0000 1.0000
65.6400 846.0000 1.0000
65.6500 852.0000 1.0000
65.6600 820.0000 1.0000
65.6700 809.0000 1.0000
65.6800 813.0000 1.0000
65.6900 809.0000 1.0000
65.7000 762.0000 1.0000
65.7100 737.0000 1.0000
65.7200 739.0000 1.0000
65.7300 700.0000 1.0000
65.7400 697.0000 1.0000
65.7500 694.0000 1.0000
65.7600 654.0000 1.0000
65.7700 640.0000 1.0000
65.7800 585.0000 1.0000
65.7900 540.0000 1.0000
65.8000 541.0000 1.0000
65.8100 508.0000 1.0000
65.8200 489.0000 1.0000
65.8300 501.0000 1.0000
65.8400 480.0000 1.0000
65.8500 475.0000 1.0000
65.8600 440.0000 1.0000
65.8700 416.0000 1.0000
65.8800 418.0000 1.0000
65.8900 411.0000 1.0000
65.9000 417.0000 1.0000
65.9100 399.0000 1.0000
65.9200 347.0000 1.0000
65.9300 337.0000 1.0000
65.9400 360.0000 1.0000
65.9500 371.0000 1.0000
65.9600 346.0000 1.0000
65.9700 326.0000 1.0000
65.9800 320.0000 1.0000
65.9900 325.0000 1.0000
66.0000 346.0000 1.0000
66.0100 318.0000 1.0000
66.0200 321.0000 1.0000
66.0300 332.0000 1.0000
66.0400 327.0000 1.0000
66.0500 318.0000 1.0000
66.0600 307.0000 1.0000
66.0700 309.0000 1.0000
66.0800 316.0000 1.0000
66.0900 287.0000 1.0000
66.1000 313.0000 1.0000
66.1100 275.0000 1.0000
66.1200 279.0000 1.0000
66.1300 298.0000 1.0000
66.1400 297.0000 1.0000
66.1500 307.0000 1.0000
66.1600 276.0000 1.0000
66.1700 269.0000 1.0000
66.1800 270.0000 1.0000
66.1900 302.0000 1.0000
66.2000 280.0000 1.0000
66.2100 300.0000 1.0000
66.2200 283.0000 1.0000
66.2300 289.0000 1.0000
66.2400 289.0000 1.0000
66.2500 271.0000 1.0000
66.2600 248.0000 1.0000
66.2700 265.0000 1.0000
66.2800 272.0000 1.0000
66.2900 259.0000 1.0000
66.3000 255.0000 1.0000
66.3100 279.0000 1.0000
66.3200 251.0000 1.0000
66.3300 237.0000 1.0000
66.3400 254.0000 1.0000
66.3500 267.0000 1.0000
66.3600 255.0000 1.0000
66.3700 277.0000 1.0000
66.3800 259.0000 1.0000
66.3900 251.0000 1.0000
66.4000 265.0000 1.0000
66.4100 248.0000 1.0000
66.4200 241.0000 1.0000
66.4300 246.0000 1.0000
66.4400 260.0000 1.0000
66.4500 248.0000 1.0000
66.4600 252.0000 1.0000
66.4700 267.0000 1.0000
66.4800 279.0000 1.0000
66.4900 244.0000 1.0000
66.5000 261.0000 1.0000
66.5100 280.0000 1.0000
66.5200 253.0000 1.0000
66.5300 264.0000 1.0000
66.5400 263.0000 1.0000
66.5500 249.0000 1.0000
66.5600 250.0000 1.0000
66.5700 230.0000 1.0000
66.5800 235.0000 1.0000
66.5900 252.0000 1.0000
66.6000 259.0000 1.0000
66.6100 256.0000 1.0000
66.6200 262.0000 1.0000
66.6300 257.0000 1.0000
66.6400 246.0000 1.0000
66.6500 259.0000 1.0000
66.6600 263.0000 1.0000
66.6700 245.0000 1.0000
66.6800 263.0000 1.0000
66.6900 259.0000 1.0000
66.7000 273.0000 1.0000
66.7100 277.0000 1.0000
66.7200 237.0000 1.0000
66.7300 247.0000 1.0000
66.7400 223.0000 1.0000
66.7500 254.0000 1.0000
66.7600 257.0000 1.0000
66.7700 234.0000 1.0000
66.7800 249.0000 1.0000
66.7900 253.0000 1.0000
66.8000 241.0000 1.0000
66.8100 246.0000 1.0000
66.8200 228.0000 1.0000
66.8300 252.0000 1.0000
66.8400 243.0000 1.0000
66.8500 254.0000 1.0000
66.8600 255.0000 1.0000
66.8700 264.0000 1.0000
66.8800 247.0000 1.0000
66.8900 241.0000 1.0000
66.9000 224.0000 1.0000
66.9100 259.0000 1.0000
66.9200 238.0000 1.0000
66.9300 239.0000 1.0000
66.9400 233.0000 1.0000
66.9500 247.0000 1.0000
66.9600 258.0000 1.0000
66.9700 234.0000 1.0000
66.9800 220.0000 1.0000
66.9900 262.0000 1.0000
67.0000 241.0000 1.0000
67.0100 227.0000 1.0000
67.0200 237.0000 1.0000
67.0300 254.0000 1.0000
67.0400 237.0000 1.0000
67.0500 241.0000 1.0000
67.0600 259.0000 1.0000
67.0700 227.0000 1.0000
67.0800 227.0000 1.0000
67.0900 242.0000 1.0000
67.1000 257.0000 1.0000
67.1100 246.0000 1.0000
67.1200 246.0000 1.0000
67.1300 224.0000 1.0000
67.1400 253.0000 1.0000
67.1500 220.0000 1.0000
67.1600 230.0000 1.0000
67.1700 235.0000 1.0000
67.1800 258.0000 1.0000
67.1900 239.0000 1.0000
67.2000 229.0000 1.0000
67.2100 249.0000 1.0000
67.2200 246.0000 1.0000
67.2300 240.0000 1.0000
67.2400 244.0000 1.0000
67.2500 208.0000 1.0000
67.2600 264.0000 1.0000
67.2700 242.0000 1.0000
67.2800 246.0000 1.0000
67.2900 245.0000 1.0000
67.3000 239.0000 1.0000
67.3100 224.0000 1.0000
67.3200 243.0000 1.0000
67.3300 243.0000 1.0000
67.3400 233.0000 1.0000
67.3500 249.0000 1.0000
67.3600 244.0000 1.0000
67.3700 245.0000 1.0000
67.3800 241.0000 1.0000
67.3900 255.0000 1.0000
67.4000 238.0000 1.0000
67.4100 246.0000 1.0000
67.4200 249.0000 1.0000
67.4300 256.0000 1.0000
67.4400 248.0000 1.0000
67.4500 221.0000 1.0000
67.4600 223.0000 1.0000
67.4700 240.0000 1.0000
67.4800 251.0000 1.0000
67.4900 212.0000 1.0000
67.5000 260.0000 1.0000
67.5100 255.0000 1.0000
67.5200 231.0000 1.0000
67.5300 241.0000 1.0000
67.5400 249.0000 1.0000
67.5500 245.0000 1.0000
67.5600 238.0000 1.0000
67.5700 229.0000 1.0000
67.5800 216.0000 1.0000
67.5900 218.0000 1.0000
67.6000 241.0000 1.0000
67.6100 257.0000 1.0000
67.6200 236.0000 1.0000
67.6300 251.0000 1.0000
67.6400 249.0000 1.0000
67.6500 263.0000 1.0000
67.6600 259.0000 1.0000
67.6700 248.0000 1.0000
67.6800 231.0000 1.0000
67.6900 226.0000 1.0000
67.7000 239.0000 1.0000
67.7100 237.0000 1.0000
67.7200 242.0000 1.0000
67.7300 222.0000 1.0000
67.7400 245.0000 1.0000
67.7500 233.0000 1.0000
67.7600 234.0000 1.0000
67.7700 245.0000 1.0000
67.7800 275.0000 1.0000
67.7900 260.0000 1.0000
67.8000 229.0000 1.0000
67.8100 230.0000 1.0000
67.8200 246.0000 1.0000
67.8300 215.0000 1.0000
67.8400 223.0000 1.0000
67.8500 220.0000 1.0000
67.8600 208.0000 1.0000
67.8700 230.0000 1.0000
67.8800 230.0000 1.0000
67.8900 237.0000 1.0000
67.9000 234.0000 1.0000
67.9100 234.0000 1.0000
67.9200 268.0000 1.0000
67.9300 232.0000 1.0000
67.9400 227.0000 1.0000
67.9500 213.0000 1.0000
67.9600 229.0000 1.0000
67.9700 230.0000 1.0000
67.9800 235.0000 1.0000
67.9900 253.0000 1.0000
68.0000 233.0000 1.0000
68.0100 255.0000 1.0000
68.0200 230.0000 1.0000
68.0300 246.0000 1.0000
68.0400 228.0000 1.0000
68.0500 238.0000 1.0000
68.0600 250.0000 1.0000
68.0700 232.0000 1.0000
68.0800 214.0000 1.0000
68.0900 205.0000 1.0000
68.1000 220.0000 1.0000
68.1100 233.0000 1.0000
68.1200 242.0000 1.0000
68.1300 270.0000 1.0000
68.1400 251.0000 1.0000
68.1500 229.0000 1.0000
68.1600 244.0000 1.0000
68.1700 233.0000 1.0000
68.1800 228.0000 1.0000
68.1900 228.0000 1.0000
68.2000 197.0000 1.0000
68.2100 206.0000 1.0000
68.2200 211.0000 1.0000
68.2300 240.0000 1.0000
68.2400 233.0000 1.0000
68.2500 218.0000 1.0000
68.2600 231.0000 1.0000
68.2700 255.0000 1.0000
68.2800 220.0000 1.0000
68.2900 227.0000 1.0000
68.3000 250.0000 1.0000
68.3100 262.0000 1.0000
68.3200 262.0000 1.0000
68.3300 211.0000 1.0000
68.3400 225.0000 1.0000
68.3500 222.0000 1.0000
68.3600 224.0000 1.0000
68.3700 216.0000 1.0000
68.3800 223.0000 1.0000
68.3900 213.0000 1.0000
68.4000 206.0000 1.0000
68.4100 220.0000 1.0000
68.4200 229.0000 1.0000
68.4300 225.0000 1.0000
68.4400 235.0000 1.0000
68.4500 235.0000 1.0000
68.4600 242.0000 1.0000
68.4700 219.0000 1.0000
68.4800 203.0000 1.0000
68.4900 226.0000 1.0000
68.5000 217.0000 1.0000
68.5100 215.0000 1.0000
68.5200 230.0000 1.0000
68.5300 213.0000 1.0000
68.5400 242.0000 1.0000
68.5500 218.0000 1.0000
68.5600 208.0000 1.0000
68.5700 225.0000 1.0000
68.5800 232.0000 1.0000
68.5900 260.0000 1.0000
68.6000 247.0000 1.0000
68.6100 215.0000 1.0000
68.6200 240.0000 1.0000
68.6300 228.0000 1.0000
68.6400 248.0000 1.0000
68.6500 240.0000 1.0000
68.6600 248.0000 1.0000
68.6700 251.0000 1.0000
68.6800 237.0000 1.0000
68.6900 215.0000 1.0000
68.7000 233.0000 1.0000
68.7100 263.0000 1.0000
68.7200 237.0000 1.0000
68.7300 257.0000 1.0000
68.7400 252.0000 1.0000
68.7500 237.0000 1.0000
68.7600 249.0000 1.0000
68.7700 243.0000 1.0000
68.7800 235.0000 1.0000
68.7900 231.0000 1.0000
68.8000 234.0000 1.0000
68.8100 227.0000 1.0000
68.8200 226.0000 1.0000
68.8300 236.0000 1.0000
68.8400 226.0000 1.0000
68.8500 226.0000 1.0000
68.8600 229.0000 1.0000
68.8700 220.0000 1.0000
68.8800 211.0000 1.0000
68.8900 222.0000 1.0000
68.9000 244.0000 1.0000
68.9100 232.0000 1.0000
68.9200 230.0000 1.0000
68.9300 237.0000 1.0000
68.9400 277.0000 1.0000
68.9500 244.0000 1.0000
68.9600 233.0000 1.0000
68.9700 227.0000 1.0000
68.9800 236.0000 1.0000
68.9900 234.0000 1.0000
69.0000 226.0000 1.0000
69.0100 231.0000 1.0000
69.0200 244.0000 1.0000
69.0300 244.0000 1.0000
69.0400 217.0000 1.0000
69.0500 229.0000 1.0000
69.0600 245.0000 1.0000
69.0700 235.0000 1.0000
69.0800 220.0000 1.0000
69.0900 270.0000 1.0000
69.1000 239.0000 1.0000
69.1100 233.0000 1.0000
69.1200 237.0000 1.0000
69.1300 230.0000 1.0000
69.1400 231.0000 1.0000
69.1500 241.0000 1.0000
69.1600 237.0000 1.0000
69.1700 241.0000 1.0000
69.1800 224.0000 1.0000
69.1900 214.0000 1.0000
69.2000 229.0000 1.0000
69.2100 233.0000 1.0000
69.2200 273.0000 1.0000
69.2300 238.0000 1.0000
69.2400 243.0000 1.0000
69.2500 233.0000 1.0000
69.2600 234.0000 1.0000
69.2700 228.0000 1.0000
69.2800 231.0000 1.0000
69.2900 228.0000 1.0000
69.3000 222.0000 1.0000
69.3100 227.0000 1.0000
69.3200 225.0000 1.0000
69.3300 212.0000 1.0000
69.3400 222.0000 1.0000
69.3500 245.0000 1.0000
69.3600 223.0000 1.0000
69.3700 235.0000 1.0000
69.3800 248.0000 1.0000
69.3900 234.0000 1.0000
69.4000 226.0000 1.0000
69.4100 241.0000 1.0000
69.4200 236.0000 1.0000
69.4300 229.0000 1.0000
69.4400 234.0000 1.0000
69.4500 236.0000 1.0000
69.4600 225.0000 1.0000
69.4700 250.0000 1.0000
69.4800 213.0000 1.0000
69.4900 207.0000 1.0000
69.5000 218.0000 1.0000
69.5100 245.0000 1.0000
69.5200 222.0000 1.0000
69.5300 206.0000 1.0000
69.5400 219.0000 1.0000
69.5500 193.0000 1.0000
69.5600 217.0000 1.0000
69.5700 251.0000 1.0000
69.5800 239.0000 1.0000
69.5900 244.0000 1.0000
69.6000 209.0000 1.0000
69.6100 247.0000 1.0000
69.6200 204.0000 1.0000
69.6300 254.0000 1.0000
69.6400 239.0000 1.0000
69.6500 228.0000 1.0000
69.6600 238.0000 1.0000
69.6700 228.0000 1.0000
69.6800 223.0000 1.0000
69.6900 212.0000 1.0000
69.7000 235.0000 1.0000
69.7100 215.0000 1.0000
69.7200 229.0000 1.0000
69.7300 254.0000 1.0000
69.7400 223.0000 1.0000
69.7500 237.0000 1.0000
69.7600 242.0000 1.0000
69.7700 226.0000 1.0000
69.7800 213.0000 1.0000
69.7900 215.0000 1.0000
69.8000 241.0000 1.0000
69.8100 219.0000 1.0000
69.8200 248.0000 1.0000
69.8300 238.0000 1.0000
69.8400 225.0000 1.0000
69.8500 238.0000 1.0000
69.8600 233.0000 1.0000
69.8700 211.0000 1.0000
69.8800 220.0000 1.0000
69.8900 230.0000 1.0000
69.9000 226.0000 1.0000
69.9100 230.0000 1.0000
69.9200 224.0000 1.0000
69.9300 200.0000 1.0000
69.9400 216.0000 1.0000
69.9500 259.0000 1.0000
69.9600 221.0000 1.0000
69.9700 235.0000 1.0000
69.9800 219.0000 1.0000
69.9900 215.0000 1.0000
70.0000 235.0000 1.0000
*RAS_INT_END
*RAS_TEMPERATURE_START
*RAS_TEMPERATURE_END
*RAS_DATA_END
