*RAS_DATA_START
*RAS_HEADER_START
*DISP_FMT_X "%.2f"
*DISP_FMT_Y "%.0f"
*DISP_FULLSCALE "14205.0000000000"
*DISP_LINE_COLOR "255.0000000000"
*DISP_LINE_STYLE "0.0000000000"
*DISP_LINE_WIDTH "0.2500000000"
*DISP_NOTE "測定データ-9"
*DISP_OFFSET_Y "0.0000000000"
*DISP_PEAKSEARCH_UNIT_Y "cps"
*DISP_RANGE_BOTTOM "0.0000000000"
*DISP_RANGE_LEFT "20.0000000000"
*DISP_RANGE_LOGCUTOFF "0.0100000000"
*DISP_RANGE_RIGHT "70.0000000000"
*DISP_RANGE_TOP "14205.0000000000"
*DISP_SCALE_MODE_Y "0.0000000000"
*DISP_TAB_NAME "2θ/θ"
*DISP_TITLE_Y "強度"
*DISP_UNIT_Y "cps"
*DISP_WINDOW_NAME "MSG_MACROENGINE"
*FILE_COMMENT " "
*FILE_MD5 ""
*FILE_MEMO " "
*FILE_OPERATOR "Administrator"
*FILE_SAMPLE " "
*FILE_TYPE "RAS_RAW"
*FILE_USERGROUP "システムマネージャ"
*FILE_VERSION "1.0000000000"
*HW_ATTACHMENT_ID "ATT0025"
*HW_ATTACHMENT_NAME "標準|Standard"
*HW_COUNTER_ID-0 "CUT0025"
*HW_COUNTER_ID-1 "CUT0020"
*HW_COUNTER_ID-2 "CUT0020"
*HW_COUNTER_ID-3 "CSL0021"
*HW_COUNTER_ID-4 "CMC0021"
*HW_COUNTER_NAME-0 "D/teX Ultra|D/teX Ultra"
*HW_COUNTER_NAME-1 "None|None"
*HW_COUNTER_NAME-2 "None|None"
*HW_COUNTER_NAME-3 "BBM|BBM"
*HW_COUNTER_NAME-4 "検出器モノクロメータ|Detector monochromator"
*HW_COUNTER_SELECT_NAME "D/teX Ultra|D/teX Ultra"
*HW_GONIOMETER_ID "GON0023"
*HW_GONIOMETER_NAME "SmartLab|SmartLab"
*HW_GONIOMETER_RADIUS-0 "90.0"
*HW_GONIOMETER_RADIUS-1 "114.0"
*HW_GONIOMETER_RADIUS-2 "190.0"
*HW_GONIOMETER_RADIUS-3 "300.0"
*HW_GONIOMETER_RADIUS-4 "187.0"
*HW_GONIOMETER_RADIUS-5 "300.0"
*HW_GONIOMETER_RADIUS-6 "113.0"
*HW_GONIOMETER_RADIUS-7 "331.0"
*HW_I_OPT_ID-0 "CBO0021"
*HW_I_OPT_ID-1 "ICR0023"
*HW_I_OPT_ID-2 "ISL0021"
*HW_I_OPT_ID-3 "ISO0021"
*HW_I_OPT_ID-4 "IAD0021"
*HW_I_OPT_ID-5 "IPR0001"
*HW_I_OPT_NAME-0 "CBOユニット|CBO unit"
*HW_I_OPT_NAME-1 "標準入射光学ユニット|Standard incident optical unit"
*HW_I_OPT_NAME-2 "標準入射スリットボックス|Standard incident slit box"
*HW_I_OPT_NAME-3 "入射平行スリット|Incident parallel slit"
*HW_I_OPT_NAME-4 "長手制限スリット|Length limiting slit"
*HW_I_OPT_NAME-5 "None|None"
*HW_R_ATTENUATER_AUTOMODE "0"
*HW_R_OPT_ID-0 "RSS0021"
*HW_R_OPT_ID-1 "RCR0023"
*HW_R_OPT_ID-2 "RSO0021"
*HW_R_OPT_ID-3 "RRS0021"
*HW_R_OPT_ID-4 "ATN0021"
*HW_R_OPT_ID-5 "RFL0021"
*HW_R_OPT_ID-6 "RAD0021"
*HW_R_OPT_NAME-0 "標準受光スリットボックス1|Standard receiving slit box # 1"
*HW_R_OPT_NAME-1 "標準受光光学ユニット1|Standard receiving unit # 1"
*HW_R_OPT_NAME-2 "標準受光光学ユニット2|Standard receiving optical unit # 2"
*HW_R_OPT_NAME-3 "標準受光スリットボックス2|Standard receiving slit box # 2"
*HW_R_OPT_NAME-4 "標準アッテネータ|Standard Attenuator"
*HW_R_OPT_NAME-5 "Cu Kβ|Cu K-beta"
*HW_R_OPT_NAME-6 "調整用受光スリット|Alignment receiving slit"
*HW_SAMPLE_HOLDER_ID "SMP0023"
*HW_SAMPLE_HOLDER_NAME "標準Zステージ|Standard Z stage"
*HW_XG_CURRENT_MAX "50"
*HW_XG_CURRENT_MIN "2"
*HW_XG_CURRENT_RESOLUTION "1"
*HW_XG_CURRENT_UNIT "mA"
*HW_XG_FOCUS "1mm x 10mm"
*HW_XG_FOCUS_TYPE "Normal"
*HW_XG_ID ""
*HW_XG_NAME "3kW 封入管(ID:1200)|3kW Sealed tube(ID:1200)"
*HW_XG_TARGET_ATOMIC_NUMBER "29.0000000000"
*HW_XG_TARGET_NAME "Cu"
*HW_XG_TYPE "Hermetic"
*HW_XG_VOLTAGE_MAX "60"
*HW_XG_VOLTAGE_MIN "20"
*HW_XG_VOLTAGE_RESOLUTION "1"
*HW_XG_VOLTAGE_UNIT "kV"
*HW_XG_WATT_MAX "1.500"
*HW_XG_WATT_UNIT "kW"
*HW_XG_WAVE_LENGTH_ALPHA1 "1.540593"
*HW_XG_WAVE_LENGTH_ALPHA2 "1.544414"
*HW_XG_WAVE_LENGTH_BETA "1.392250"
*MEAS_COND_AXIS_NAME-0 "2θ/θ"
*MEAS_COND_AXIS_NAME-1 "2θ"
*MEAS_COND_AXIS_NAME-2 "ω"
*MEAS_COND_AXIS_NAME-3 "Z"
*MEAS_COND_AXIS_NAME-4 "2θ/ω"
*MEAS_COND_AXIS_NAME-5 "θs"
*MEAS_COND_AXIS_NAME-6 "θd"
*MEAS_COND_AXIS_NAME-7 "Ts"
*MEAS_COND_AXIS_NAME-8 "CBO選択スリット"
*MEAS_COND_AXIS_NAME-9 "M"
*MEAS_COND_AXIS_NAME-10 "入射平行スリット"
*MEAS_COND_AXIS_NAME-11 "入射スリット"
*MEAS_COND_AXIS_NAME-12 ""
*MEAS_COND_AXIS_NAME-13 "Zs"
*MEAS_COND_AXIS_NAME-14 "入射光学素子"
*MEAS_COND_AXIS_NAME-15 "長手制限スリット"
*MEAS_COND_AXIS_NAME-16 "センタースリット"
*MEAS_COND_AXIS_NAME-17 "フィルター"
*MEAS_COND_AXIS_NAME-18 "受光スリット1"
*MEAS_COND_AXIS_NAME-19 "受光スリット2"
*MEAS_COND_AXIS_NAME-20 "受光光学素子"
*MEAS_COND_AXIS_NAME-21 "受光平行スリット"
*MEAS_COND_AXIS_NAME-22 "調整用受光スリット"
*MEAS_COND_AXIS_NAME-23 ""
*MEAS_COND_AXIS_NAME-24 ""
*MEAS_COND_AXIS_NAME-25 "Zd"
*MEAS_COND_AXIS_NAME-26 "アッテネータ"
*MEAS_COND_AXIS_NAME-27 "検出器モノクロメータ"
*MEAS_COND_AXIS_NAME-28 "モノクロメータスリット"
*MEAS_COND_AXIS_NAME-29 "プライマリビーム"
*MEAS_COND_AXIS_NAME-30 "PHA"
*MEAS_COND_AXIS_NAME_INTERNAL-0 "TwoThetaTheta"
*MEAS_COND_AXIS_NAME_INTERNAL-1 "TwoTheta"
*MEAS_COND_AXIS_NAME_INTERNAL-2 "Omega"
*MEAS_COND_AXIS_NAME_INTERNAL-3 "Z"
*MEAS_COND_AXIS_NAME_INTERNAL-4 "TwoThetaOmega"
*MEAS_COND_AXIS_NAME_INTERNAL-5 "ThetaS"
*MEAS_COND_AXIS_NAME_INTERNAL-6 "ThetaD"
*MEAS_COND_AXIS_NAME_INTERNAL-7 "Ts"
*MEAS_COND_AXIS_NAME_INTERNAL-8 "CBO"
*MEAS_COND_AXIS_NAME_INTERNAL-9 "CBO-M"
*MEAS_COND_AXIS_NAME_INTERNAL-10 "IncidentSollerSlit"
*MEAS_COND_AXIS_NAME_INTERNAL-11 "IncidentSlitBox"
*MEAS_COND_AXIS_NAME_INTERNAL-12 "IncidentSlitBox-_Axis"
*MEAS_COND_AXIS_NAME_INTERNAL-13 "Zs"
*MEAS_COND_AXIS_NAME_INTERNAL-14 "IncidentMonochromator"
*MEAS_COND_AXIS_NAME_INTERNAL-15 "IncidentAxdSlit"
*MEAS_COND_AXIS_NAME_INTERNAL-16 "CenterSlit"
*MEAS_COND_AXIS_NAME_INTERNAL-17 "Filter"
*MEAS_COND_AXIS_NAME_INTERNAL-18 "ReceivingSlitBox1"
*MEAS_COND_AXIS_NAME_INTERNAL-19 "ReceivingSlitBox2"
*MEAS_COND_AXIS_NAME_INTERNAL-20 "ReceivingOptics"
*MEAS_COND_AXIS_NAME_INTERNAL-21 "ReceivingSollerSlit"
*MEAS_COND_AXIS_NAME_INTERNAL-22 "ReceivingAxdSlit"
*MEAS_COND_AXIS_NAME_INTERNAL-23 "ReceivingSlitBox1-_Axis"
*MEAS_COND_AXIS_NAME_INTERNAL-24 "ReceivingSlitBox2-_Axis"
*MEAS_COND_AXIS_NAME_INTERNAL-25 "ReceivingSlitBox2-Zd"
*MEAS_COND_AXIS_NAME_INTERNAL-26 "Attenuator"
*MEAS_COND_AXIS_NAME_INTERNAL-27 "CounterMonochromator"
*MEAS_COND_AXIS_NAME_INTERNAL-28 "CounterSlit"
*MEAS_COND_AXIS_NAME_INTERNAL-29 "IncidentPrimary"
*MEAS_COND_AXIS_NAME_INTERNAL-30 "PHA"
*MEAS_COND_AXIS_NAME_MAGICNO-0 "83951616.0000000000"
*MEAS_COND_AXIS_NAME_MAGICNO-1 "268632064.0000000000"
*MEAS_COND_AXIS_NAME_MAGICNO-2 "268500992.0000000000"
*MEAS_COND_AXIS_NAME_MAGICNO-3 "285278208.0000000000"
*MEAS_COND_AXIS_NAME_MAGICNO-4 "83951616.0000000000"
*MEAS_COND_AXIS_NAME_MAGICNO-5 "131072.0000000000"
*MEAS_COND_AXIS_NAME_MAGICNO-6 "131072.0000000000"
*MEAS_COND_AXIS_NAME_MAGICNO-7 "318898176.0000000000"
*MEAS_COND_AXIS_NAME_MAGICNO-8 "20971521.0000000000"
*MEAS_COND_AXIS_NAME_MAGICNO-9 "285343744.0000000000"
*MEAS_COND_AXIS_NAME_MAGICNO-10 "20971521.0000000000"
*MEAS_COND_AXIS_NAME_MAGICNO-11 "22020097.0000000000"
*MEAS_COND_AXIS_NAME_MAGICNO-12 "25165824.0000000000"
*MEAS_COND_AXIS_NAME_MAGICNO-13 "318898176.0000000000"
*MEAS_COND_AXIS_NAME_MAGICNO-14 "1.0000000000"
*MEAS_COND_AXIS_NAME_MAGICNO-15 "20971521.0000000000"
*MEAS_COND_AXIS_NAME_MAGICNO-16 "20971521.0000000000"
*MEAS_COND_AXIS_NAME_MAGICNO-17 "20971521.0000000000"
*MEAS_COND_AXIS_NAME_MAGICNO-18 "23068673.0000000000"
*MEAS_COND_AXIS_NAME_MAGICNO-19 "23068673.0000000000"
*MEAS_COND_AXIS_NAME_MAGICNO-20 "20971521.0000000000"
*MEAS_COND_AXIS_NAME_MAGICNO-21 "20971521.0000000000"
*MEAS_COND_AXIS_NAME_MAGICNO-22 "20971521.0000000000"
*MEAS_COND_AXIS_NAME_MAGICNO-23 "25165824.0000000000"
*MEAS_COND_AXIS_NAME_MAGICNO-24 "25165824.0000000000"
*MEAS_COND_AXIS_NAME_MAGICNO-25 "285343744.0000000000"
*MEAS_COND_AXIS_NAME_MAGICNO-26 "17301505.0000000000"
*MEAS_COND_AXIS_NAME_MAGICNO-27 "20971521.0000000000"
*MEAS_COND_AXIS_NAME_MAGICNO-28 "20971521.0000000000"
*MEAS_COND_AXIS_NAME_MAGICNO-29 "20971521.0000000000"
*MEAS_COND_AXIS_NAME_MAGICNO-30 "0.0000000000"
*MEAS_COND_AXIS_OFFSET-0 "-"
*MEAS_COND_AXIS_OFFSET-1 "-0.0310000000"
*MEAS_COND_AXIS_OFFSET-2 "0.3978000000"
*MEAS_COND_AXIS_OFFSET-3 "-"
*MEAS_COND_AXIS_OFFSET-4 "-"
*MEAS_COND_AXIS_OFFSET-5 "0.3978000000"
*MEAS_COND_AXIS_OFFSET-6 "-0.4288000000"
*MEAS_COND_AXIS_OFFSET-7 "-"
*MEAS_COND_AXIS_OFFSET-8 "-"
*MEAS_COND_AXIS_OFFSET-9 "-"
*MEAS_COND_AXIS_OFFSET-10 "-"
*MEAS_COND_AXIS_OFFSET-11 "-"
*MEAS_COND_AXIS_OFFSET-12 "-"
*MEAS_COND_AXIS_OFFSET-13 "-"
*MEAS_COND_AXIS_OFFSET-14 "-"
*MEAS_COND_AXIS_OFFSET-15 "-"
*MEAS_COND_AXIS_OFFSET-16 "-"
*MEAS_COND_AXIS_OFFSET-17 "-"
*MEAS_COND_AXIS_OFFSET-18 "-"
*MEAS_COND_AXIS_OFFSET-19 "-"
*MEAS_COND_AXIS_OFFSET-20 "-"
*MEAS_COND_AXIS_OFFSET-21 "-"
*MEAS_COND_AXIS_OFFSET-22 "-"
*MEAS_COND_AXIS_OFFSET-23 "-"
*MEAS_COND_AXIS_OFFSET-24 "-"
*MEAS_COND_AXIS_OFFSET-25 "-"
*MEAS_COND_AXIS_OFFSET-26 "-"
*MEAS_COND_AXIS_OFFSET-27 "-"
*MEAS_COND_AXIS_OFFSET-28 "-"
*MEAS_COND_AXIS_OFFSET-29 "-"
*MEAS_COND_AXIS_OFFSET-30 "-"
*MEAS_COND_AXIS_POSITION-0 "0.0000000000"
*MEAS_COND_AXIS_POSITION-1 "0.0000000000"
*MEAS_COND_AXIS_POSITION-2 "0.0000000000"
*MEAS_COND_AXIS_POSITION-3 "-2.9770000000"
*MEAS_COND_AXIS_POSITION-4 "0.0000000000"
*MEAS_COND_AXIS_POSITION-5 "0.0000000000"
*MEAS_COND_AXIS_POSITION-6 "0.0000000000"
*MEAS_COND_AXIS_POSITION-7 "-0.7498700000"
*MEAS_COND_AXIS_POSITION-8 "BB"
*MEAS_COND_AXIS_POSITION-9 "0.0000000000"
*MEAS_COND_AXIS_POSITION-10 "Soller_slit_5.0deg"
*MEAS_COND_AXIS_POSITION-11 "2/3deg"
*MEAS_COND_AXIS_POSITION-12 "2.2088000000"
*MEAS_COND_AXIS_POSITION-13 "-0.6412500000"
*MEAS_COND_AXIS_POSITION-14 "0.0000000000"
*MEAS_COND_AXIS_POSITION-15 "10.0mm"
*MEAS_COND_AXIS_POSITION-16 "None"
*MEAS_COND_AXIS_POSITION-17 "Cu_K-beta"
*MEAS_COND_AXIS_POSITION-18 "13.000mm"
*MEAS_COND_AXIS_POSITION-19 "13.000mm"
*MEAS_COND_AXIS_POSITION-20 "No_unit"
*MEAS_COND_AXIS_POSITION-21 "Soller_slit_5.0deg"
*MEAS_COND_AXIS_POSITION-22 "None"
*MEAS_COND_AXIS_POSITION-23 "13.0000000000"
*MEAS_COND_AXIS_POSITION-24 "13.0000000000"
*MEAS_COND_AXIS_POSITION-25 "0.0281300000"
*MEAS_COND_AXIS_POSITION-26 "Open"
*MEAS_COND_AXIS_POSITION-27 "None"
*MEAS_COND_AXIS_POSITION-28 "None"
*MEAS_COND_AXIS_POSITION-29 "None"
*MEAS_COND_AXIS_POSITION-30 "38.0000000000"
*MEAS_COND_AXIS_UNIT-0 "deg"
*MEAS_COND_AXIS_UNIT-1 "deg"
*MEAS_COND_AXIS_UNIT-2 "deg"
*MEAS_COND_AXIS_UNIT-3 "mm"
*MEAS_COND_AXIS_UNIT-4 "deg"
*MEAS_COND_AXIS_UNIT-5 "deg"
*MEAS_COND_AXIS_UNIT-6 "deg"
*MEAS_COND_AXIS_UNIT-7 "mm"
*MEAS_COND_AXIS_UNIT-8 ""
*MEAS_COND_AXIS_UNIT-9 "pulse"
*MEAS_COND_AXIS_UNIT-10 ""
*MEAS_COND_AXIS_UNIT-11 ""
*MEAS_COND_AXIS_UNIT-12 "mm"
*MEAS_COND_AXIS_UNIT-13 "mm"
*MEAS_COND_AXIS_UNIT-14 ""
*MEAS_COND_AXIS_UNIT-15 ""
*MEAS_COND_AXIS_UNIT-16 ""
*MEAS_COND_AXIS_UNIT-17 ""
*MEAS_COND_AXIS_UNIT-18 ""
*MEAS_COND_AXIS_UNIT-19 ""
*MEAS_COND_AXIS_UNIT-20 ""
*MEAS_COND_AXIS_UNIT-21 ""
*MEAS_COND_AXIS_UNIT-22 ""
*MEAS_COND_AXIS_UNIT-23 "mm"
*MEAS_COND_AXIS_UNIT-24 "mm"
*MEAS_COND_AXIS_UNIT-25 "mm"
*MEAS_COND_AXIS_UNIT-26 ""
*MEAS_COND_AXIS_UNIT-27 ""
*MEAS_COND_AXIS_UNIT-28 ""
*MEAS_COND_AXIS_UNIT-29 ""
*MEAS_COND_AXIS_UNIT-30 "div"
*MEAS_COND_COUNTER_CNTLOSS_CORR "0.0000000000"
*MEAS_COND_COUNTER_PHABASE "38.0000000000"
*MEAS_COND_COUNTER_PHAWINDOW "16.0000000000"
*MEAS_COND_COUNTER_PHA_UNIT "div"
*MEAS_COND_COUNTER_TAUDIFF "30.0000000000"
*MEAS_COND_COUNTER_TAUINT "0.0000000000"
*MEAS_COND_IRRADIATION_MODE "OFF"
*MEAS_COND_IRRADIATION_WIDTH ""
*MEAS_COND_OPT_ATTR "集中法"
*MEAS_COND_OPT_NAME "@集中法"
*MEAS_COND_UNSYMMETRIC_MODE "OFF"
*MEAS_COND_XG_CURRENT "30.0000000000"
*MEAS_COND_XG_VOLTAGE "40.0000000000"
*MEAS_COND_XG_WAVE_TYPE "Ka"
*MEAS_DATA_COUNT "5001.0000000000"
*MEAS_SCAN_AXIS_X "2θ/θ"
*MEAS_SCAN_AXIS_X_INTERNAL "TwoThetaTheta"
*MEAS_SCAN_END_TIME "05/18/23 21:17:29"
*MEAS_SCAN_MODE "CONTINUOUS"
*MEAS_SCAN_MONITOR "0"
*MEAS_SCAN_RESOLUTION_X "0.0002"
*MEAS_SCAN_SPEED "2.5"
*MEAS_SCAN_SPEED_UNIT "deg/min"
*MEAS_SCAN_START "20.0000000000"
*MEAS_SCAN_START_TIME "05/18/23 20:56:06"
*MEAS_SCAN_STEP "0.0100000000"
*MEAS_SCAN_STOP "70.0000000000"
*MEAS_SCAN_UNIT_X "deg"
*MEAS_SCAN_UNIT_Y "counts"
*RAS_HEADER_END
*RAS_INT_START
20.0000 814.0000 1.0000
20.0100 792.0000 1.0000
20.0200 821.0000 1.0000
20.0300 821.0000 1.0000
20.0400 873.0000 1.0000
20.0500 832.0000 1.0000
20.0600 892.0000 1.0000
20.0700 884.0000 1.0000
20.0800 886.0000 1.0000
20.0900 837.0000 1.0000
20.1000 866.0000 1.0000
20.1100 832.0000 1.0000
20.1200 842.0000 1.0000
20.1300 824.0000 1.0000
20.1400 863.0000 1.0000
20.1500 829.0000 1.0000
20.1600 819.0000 1.0000
20.1700 842.0000 1.0000
20.1800 871.0000 1.0000
20.1900 803.0000 1.0000
20.2000 850.0000 1.0000
20.2100 856.0000 1.0000
20.2200 884.0000 1.0000
20.2300 861.0000 1.0000
20.2400 822.0000 1.0000
20.2500 868.0000 1.0000
20.2600 842.0000 1.0000
20.2700 846.0000 1.0000
20.2800 840.0000 1.0000
20.2900 862.0000 1.0000
20.3000 855.0000 1.0000
20.3100 828.0000 1.0000
20.3200 843.0000 1.0000
20.3300 859.0000 1.0000
20.3400 924.0000 1.0000
20.3500 853.0000 1.0000
20.3600 827.0000 1.0000
20.3700 871.0000 1.0000
20.3800 829.0000 1.0000
20.3900 813.0000 1.0000
20.4000 843.0000 1.0000
20.4100 875.0000 1.0000
20.4200 848.0000 1.0000
20.4300 877.0000 1.0000
20.4400 833.0000 1.0000
20.4500 861.0000 1.0000
20.4600 823.0000 1.0000
20.4700 802.0000 1.0000
20.4800 850.0000 1.0000
20.4900 855.0000 1.0000
20.5000 904.0000 1.0000
20.5100 873.0000 1.0000
20.5200 805.0000 1.0000
20.5300 866.0000 1.0000
20.5400 808.0000 1.0000
20.5500 858.0000 1.0000
20.5600 831.0000 1.0000
20.5700 822.0000 1.0000
20.5800 834.0000 1.0000
20.5900 855.0000 1.0000
20.6000 840.0000 1.0000
20.6100 793.0000 1.0000
20.6200 854.0000 1.0000
20.6300 805.0000 1.0000
20.6400 867.0000 1.0000
20.6500 870.0000 1.0000
20.6600 869.0000 1.0000
20.6700 840.0000 1.0000
20.6800 840.0000 1.0000
20.6900 838.0000 1.0000
20.7000 858.0000 1.0000
20.7100 759.0000 1.0000
20.7200 846.0000 1.0000
20.7300 855.0000 1.0000
20.7400 787.0000 1.0000
20.7500 800.0000 1.0000
20.7600 837.0000 1.0000
20.7700 852.0000 1.0000
20.7800 848.0000 1.0000
20.7900 849.0000 1.0000
20.8000 792.0000 1.0000
20.8100 835.0000 1.0000
20.8200 848.0000 1.0000
20.8300 839.0000 1.0000
20.8400 819.0000 1.0000
20.8500 855.0000 1.0000
20.8600 826.0000 1.0000
20.8700 842.0000 1.0000
20.8800 798.0000 1.0000
20.8900 828.0000 1.0000
20.9000 802.0000 1.0000
20.9100 770.0000 1.0000
20.9200 823.0000 1.0000
20.9300 821.0000 1.0000
20.9400 866.0000 1.0000
20.9500 803.0000 1.0000
20.9600 815.0000 1.0000
20.9700 868.0000 1.0000
20.9800 836.0000 1.0000
20.9900 792.0000 1.0000
21.0000 805.0000 1.0000
21.0100 860.0000 1.0000
21.0200 803.0000 1.0000
21.0300 858.0000 1.0000
21.0400 844.0000 1.0000
21.0500 832.0000 1.0000
21.0600 803.0000 1.0000
21.0700 768.0000 1.0000
21.0800 871.0000 1.0000
21.0900 881.0000 1.0000
21.1000 836.0000 1.0000
21.1100 819.0000 1.0000
21.1200 784.0000 1.0000
21.1300 804.0000 1.0000
21.1400 818.0000 1.0000
21.1500 826.0000 1.0000
21.1600 840.0000 1.0000
21.1700 874.0000 1.0000
21.1800 845.0000 1.0000
21.1900 814.0000 1.0000
21.2000 821.0000 1.0000
21.2100 771.0000 1.0000
21.2200 825.0000 1.0000
21.2300 813.0000 1.0000
21.2400 853.0000 1.0000
21.2500 849.0000 1.0000
21.2600 837.0000 1.0000
21.2700 786.0000 1.0000
21.2800 833.0000 1.0000
21.2900 818.0000 1.0000
21.3000 821.0000 1.0000
21.3100 860.0000 1.0000
21.3200 853.0000 1.0000
21.3300 829.0000 1.0000
21.3400 869.0000 1.0000
21.3500 810.0000 1.0000
21.3600 828.0000 1.0000
21.3700 825.0000 1.0000
21.3800 817.0000 1.0000
21.3900 788.0000 1.0000
21.4000 830.0000 1.0000
21.4100 826.0000 1.0000
21.4200 813.0000 1.0000
21.4300 818.0000 1.0000
21.4400 859.0000 1.0000
21.4500 828.0000 1.0000
21.4600 832.0000 1.0000
21.4700 818.0000 1.0000
21.4800 798.0000 1.0000
21.4900 793.0000 1.0000
21.5000 832.0000 1.0000
21.5100 843.0000 1.0000
21.5200 792.0000 1.0000
21.5300 819.0000 1.0000
21.5400 842.0000 1.0000
21.5500 828.0000 1.0000
21.5600 820.0000 1.0000
21.5700 852.0000 1.0000
21.5800 779.0000 1.0000
21.5900 785.0000 1.0000
21.6000 783.0000 1.0000
21.6100 786.0000 1.0000
21.6200 819.0000 1.0000
21.6300 807.0000 1.0000
21.6400 844.0000 1.0000
21.6500 795.0000 1.0000
21.6600 838.0000 1.0000
21.6700 877.0000 1.0000
21.6800 838.0000 1.0000
21.6900 817.0000 1.0000
21.7000 862.0000 1.0000
21.7100 860.0000 1.0000
21.7200 881.0000 1.0000
21.7300 831.0000 1.0000
21.7400 818.0000 1.0000
21.7500 857.0000 1.0000
21.7600 846.0000 1.0000
21.7700 866.0000 1.0000
21.7800 842.0000 1.0000
21.7900 840.0000 1.0000
21.8000 831.0000 1.0000
21.8100 835.0000 1.0000
21.8200 820.0000 1.0000
21.8300 800.0000 1.0000
21.8400 845.0000 1.0000
21.8500 803.0000 1.0000
21.8600 807.0000 1.0000
21.8700 834.0000 1.0000
21.8800 849.0000 1.0000
21.8900 819.0000 1.0000
21.9000 859.0000 1.0000
21.9100 808.0000 1.0000
21.9200 842.0000 1.0000
21.9300 866.0000 1.0000
21.9400 826.0000 1.0000
21.9500 791.0000 1.0000
21.9600 804.0000 1.0000
21.9700 821.0000 1.0000
21.9800 837.0000 1.0000
21.9900 870.0000 1.0000
22.0000 813.0000 1.0000
22.0100 862.0000 1.0000
22.0200 850.0000 1.0000
22.0300 820.0000 1.0000
22.0400 805.0000 1.0000
22.0500 815.0000 1.0000
22.0600 844.0000 1.0000
22.0700 838.0000 1.0000
22.0800 822.0000 1.0000
22.0900 832.0000 1.0000
22.1000 807.0000 1.0000
22.1100 843.0000 1.0000
22.1200 824.0000 1.0000
22.1300 830.0000 1.0000
22.1400 799.0000 1.0000
22.1500 803.0000 1.0000
22.1600 794.0000 1.0000
22.1700 813.0000 1.0000
22.1800 783.0000 1.0000
22.1900 835.0000 1.0000
22.2000 833.0000 1.0000
22.2100 813.0000 1.0000
22.2200 831.0000 1.0000
22.2300 797.0000 1.0000
22.2400 786.0000 1.0000
22.2500 794.0000 1.0000
22.2600 835.0000 1.0000
22.2700 787.0000 1.0000
22.2800 809.0000 1.0000
22.2900 826.0000 1.0000
22.3000 825.0000 1.0000
22.3100 851.0000 1.0000
22.3200 817.0000 1.0000
22.3300 801.0000 1.0000
22.3400 808.0000 1.0000
22.3500 868.0000 1.0000
22.3600 868.0000 1.0000
22.3700 812.0000 1.0000
22.3800 820.0000 1.0000
22.3900 786.0000 1.0000
22.4000 777.0000 1.0000
22.4100 781.0000 1.0000
22.4200 831.0000 1.0000
22.4300 808.0000 1.0000
22.4400 836.0000 1.0000
22.4500 781.0000 1.0000
22.4600 804.0000 1.0000
22.4700 800.0000 1.0000
22.4800 800.0000 1.0000
22.4900 826.0000 1.0000
22.5000 822.0000 1.0000
22.5100 772.0000 1.0000
22.5200 825.0000 1.0000
22.5300 824.0000 1.0000
22.5400 878.0000 1.0000
22.5500 850.0000 1.0000
22.5600 826.0000 1.0000
22.5700 814.0000 1.0000
22.5800 821.0000 1.0000
22.5900 816.0000 1.0000
22.6000 819.0000 1.0000
22.6100 834.0000 1.0000
22.6200 797.0000 1.0000
22.6300 838.0000 1.0000
22.6400 850.0000 1.0000
22.6500 846.0000 1.0000
22.6600 834.0000 1.0000
22.6700 820.0000 1.0000
22.6800 838.0000 1.0000
22.6900 764.0000 1.0000
22.7000 806.0000 1.0000
22.7100 806.0000 1.0000
22.7200 798.0000 1.0000
22.7300 810.0000 1.0000
22.7400 856.0000 1.0000
22.7500 830.0000 1.0000
22.7600 799.0000 1.0000
22.7700 807.0000 1.0000
22.7800 838.0000 1.0000
22.7900 828.0000 1.0000
22.8000 840.0000 1.0000
22.8100 819.0000 1.0000
22.8200 814.0000 1.0000
22.8300 813.0000 1.0000
22.8400 789.0000 1.0000
22.8500 798.0000 1.0000
22.8600 808.0000 1.0000
22.8700 816.0000 1.0000
22.8800 789.0000 1.0000
22.8900 821.0000 1.0000
22.9000 765.0000 1.0000
22.9100 801.0000 1.0000
22.9200 795.0000 1.0000
22.9300 789.0000 1.0000
22.9400 785.0000 1.0000
22.9500 837.0000 1.0000
22.9600 799.0000 1.0000
22.9700 838.0000 1.0000
22.9800 800.0000 1.0000
22.9900 793.0000 1.0000
23.0000 770.0000 1.0000
23.0100 787.0000 1.0000
23.0200 790.0000 1.0000
23.0300 794.0000 1.0000
23.0400 806.0000 1.0000
23.0500 790.0000 1.0000
23.0600 844.0000 1.0000
23.0700 806.0000 1.0000
23.0800 809.0000 1.0000
23.0900 773.0000 1.0000
23.1000 779.0000 1.0000
23.1100 758.0000 1.0000
23.1200 784.0000 1.0000
23.1300 769.0000 1.0000
23.1400 766.0000 1.0000
23.1500 819.0000 1.0000
23.1600 825.0000 1.0000
23.1700 808.0000 1.0000
23.1800 742.0000 1.0000
23.1900 799.0000 1.0000
23.2000 844.0000 1.0000
23.2100 824.0000 1.0000
23.2200 794.0000 1.0000
23.2300 789.0000 1.0000
23.2400 855.0000 1.0000
23.2500 841.0000 1.0000
23.2600 826.0000 1.0000
23.2700 807.0000 1.0000
23.2800 835.0000 1.0000
23.2900 812.0000 1.0000
23.3000 807.0000 1.0000
23.3100 787.0000 1.0000
23.3200 789.0000 1.0000
23.3300 785.0000 1.0000
23.3400 803.0000 1.0000
23.3500 825.0000 1.0000
23.3600 778.0000 1.0000
23.3700 781.0000 1.0000
23.3800 808.0000 1.0000
23.3900 774.0000 1.0000
23.4000 846.0000 1.0000
23.4100 809.0000 1.0000
23.4200 831.0000 1.0000
23.4300 821.0000 1.0000
23.4400 816.0000 1.0000
23.4500 753.0000 1.0000
23.4600 775.0000 1.0000
23.4700 796.0000 1.0000
23.4800 785.0000 1.0000
23.4900 757.0000 1.0000
23.5000 775.0000 1.0000
23.5100 830.0000 1.0000
23.5200 813.0000 1.0000
23.5300 827.0000 1.0000
23.5400 803.0000 1.0000
23.5500 783.0000 1.0000
23.5600 792.0000 1.0000
23.5700 796.0000 1.0000
23.5800 776.0000 1.0000
23.5900 755.0000 1.0000
23.6000 788.0000 1.0000
23.6100 789.0000 1.0000
23.6200 769.0000 1.0000
23.6300 837.0000 1.0000
23.6400 797.0000 1.0000
23.6500 806.0000 1.0000
23.6600 779.0000 1.0000
23.6700 817.0000 1.0000
23.6800 778.0000 1.0000
23.6900 773.0000 1.0000
23.7000 809.0000 1.0000
23.7100 762.0000 1.0000
23.7200 821.0000 1.0000
23.7300 802.0000 1.0000
23.7400 845.0000 1.0000
23.7500 789.0000 1.0000
23.7600 807.0000 1.0000
23.7700 799.0000 1.0000
23.7800 787.0000 1.0000
23.7900 781.0000 1.0000
23.8000 781.0000 1.0000
23.8100 793.0000 1.0000
23.8200 821.0000 1.0000
23.8300 863.0000 1.0000
23.8400 826.0000 1.0000
23.8500 814.0000 1.0000
23.8600 835.0000 1.0000
23.8700 881.0000 1.0000
23.8800 811.0000 1.0000
23.8900 832.0000 1.0000
23.9000 806.0000 1.0000
23.9100 830.0000 1.0000
23.9200 822.0000 1.0000
23.9300 819.0000 1.0000
23.9400 822.0000 1.0000
23.9500 838.0000 1.0000
23.9600 832.0000 1.0000
23.9700 800.0000 1.0000
23.9800 807.0000 1.0000
23.9900 833.0000 1.0000
24.0000 817.0000 1.0000
24.0100 842.0000 1.0000
24.0200 808.0000 1.0000
24.0300 839.0000 1.0000
24.0400 832.0000 1.0000
24.0500 823.0000 1.0000
24.0600 878.0000 1.0000
24.0700 881.0000 1.0000
24.0800 829.0000 1.0000
24.0900 847.0000 1.0000
24.1000 818.0000 1.0000
24.1100 781.0000 1.0000
24.1200 807.0000 1.0000
24.1300 803.0000 1.0000
24.1400 800.0000 1.0000
24.1500 874.0000 1.0000
24.1600 848.0000 1.0000
24.1700 818.0000 1.0000
24.1800 800.0000 1.0000
24.1900 793.0000 1.0000
24.2000 827.0000 1.0000
24.2100 818.0000 1.0000
24.2200 773.0000 1.0000
24.2300 837.0000 1.0000
24.2400 830.0000 1.0000
24.2500 827.0000 1.0000
24.2600 819.0000 1.0000
24.2700 801.0000 1.0000
24.2800 794.0000 1.0000
24.2900 818.0000 1.0000
24.3000 812.0000 1.0000
24.3100 786.0000 1.0000
24.3200 783.0000 1.0000
24.3300 794.0000 1.0000
24.3400 812.0000 1.0000
24.3500 768.0000 1.0000
24.3600 778.0000 1.0000
24.3700 784.0000 1.0000
24.3800 794.0000 1.0000
24.3900 802.0000 1.0000
24.4000 790.0000 1.0000
24.4100 833.0000 1.0000
24.4200 817.0000 1.0000
24.4300 806.0000 1.0000
24.4400 782.0000 1.0000
24.4500 782.0000 1.0000
24.4600 836.0000 1.0000
24.4700 783.0000 1.0000
24.4800 758.0000 1.0000
24.4900 814.0000 1.0000
24.5000 790.0000 1.0000
24.5100 768.0000 1.0000
24.5200 803.0000 1.0000
24.5300 774.0000 1.0000
24.5400 782.0000 1.0000
24.5500 800.0000 1.0000
24.5600 799.0000 1.0000
24.5700 731.0000 1.0000
24.5800 777.0000 1.0000
24.5900 794.0000 1.0000
24.6000 767.0000 1.0000
24.6100 773.0000 1.0000
24.6200 787.0000 1.0000
24.6300 769.0000 1.0000
24.6400 766.0000 1.0000
24.6500 756.0000 1.0000
24.6600 782.0000 1.0000
24.6700 783.0000 1.0000
24.6800 746.0000 1.0000
24.6900 758.0000 1.0000
24.7000 718.0000 1.0000
24.7100 771.0000 1.0000
24.7200 781.0000 1.0000
24.7300 777.0000 1.0000
24.7400 831.0000 1.0000
24.7500 778.0000 1.0000
24.7600 776.0000 1.0000
24.7700 801.0000 1.0000
24.7800 755.0000 1.0000
24.7900 793.0000 1.0000
24.8000 757.0000 1.0000
24.8100 766.0000 1.0000
24.8200 772.0000 1.0000
24.8300 807.0000 1.0000
24.8400 778.0000 1.0000
24.8500 728.0000 1.0000
24.8600 779.0000 1.0000
24.8700 789.0000 1.0000
24.8800 755.0000 1.0000
24.8900 735.0000 1.0000
24.9000 776.0000 1.0000
24.9100 815.0000 1.0000
24.9200 822.0000 1.0000
24.9300 799.0000 1.0000
24.9400 749.0000 1.0000
24.9500 813.0000 1.0000
24.9600 753.0000 1.0000
24.9700 753.0000 1.0000
24.9800 734.0000 1.0000
24.9900 764.0000 1.0000
25.0000 726.0000 1.0000
25.0100 736.0000 1.0000
25.0200 719.0000 1.0000
25.0300 754.0000 1.0000
25.0400 790.0000 1.0000
25.0500 773.0000 1.0000
25.0600 755.0000 1.0000
25.0700 779.0000 1.0000
25.0800 774.0000 1.0000
25.0900 758.0000 1.0000
25.1000 748.0000 1.0000
25.1100 719.0000 1.0000
25.1200 721.0000 1.0000
25.1300 770.0000 1.0000
25.1400 805.0000 1.0000
25.1500 738.0000 1.0000
25.1600 792.0000 1.0000
25.1700 771.0000 1.0000
25.1800 781.0000 1.0000
25.1900 766.0000 1.0000
25.2000 755.0000 1.0000
25.2100 771.0000 1.0000
25.2200 795.0000 1.0000
25.2300 802.0000 1.0000
25.2400 767.0000 1.0000
25.2500 759.0000 1.0000
25.2600 765.0000 1.0000
25.2700 771.0000 1.0000
25.2800 813.0000 1.0000
25.2900 736.0000 1.0000
25.3000 779.0000 1.0000
25.3100 749.0000 1.0000
25.3200 759.0000 1.0000
25.3300 762.0000 1.0000
25.3400 835.0000 1.0000
25.3500 776.0000 1.0000
25.3600 738.0000 1.0000
25.3700 785.0000 1.0000
25.3800 758.0000 1.0000
25.3900 784.0000 1.0000
25.4000 743.0000 1.0000
25.4100 768.0000 1.0000
25.4200 782.0000 1.0000
25.4300 766.0000 1.0000
25.4400 756.0000 1.0000
25.4500 787.0000 1.0000
25.4600 777.0000 1.0000
25.4700 754.0000 1.0000
25.4800 821.0000 1.0000
25.4900 793.0000 1.0000
25.5000 772.0000 1.0000
25.5100 778.0000 1.0000
25.5200 745.0000 1.0000
25.5300 803.0000 1.0000
25.5400 779.0000 1.0000
25.5500 775.0000 1.0000
25.5600 776.0000 1.0000
25.5700 743.0000 1.0000
25.5800 783.0000 1.0000
25.5900 807.0000 1.0000
25.6000 774.0000 1.0000
25.6100 800.0000 1.0000
25.6200 797.0000 1.0000
25.6300 728.0000 1.0000
25.6400 782.0000 1.0000
25.6500 771.0000 1.0000
25.6600 808.0000 1.0000
25.6700 805.0000 1.0000
25.6800 770.0000 1.0000
25.6900 794.0000 1.0000
25.7000 791.0000 1.0000
25.7100 775.0000 1.0000
25.7200 806.0000 1.0000
25.7300 812.0000 1.0000
25.7400 800.0000 1.0000
25.7500 762.0000 1.0000
25.7600 779.0000 1.0000
25.7700 783.0000 1.0000
25.7800 797.0000 1.0000
25.7900 821.0000 1.0000
25.8000 772.0000 1.0000
25.8100 784.0000 1.0000
25.8200 752.0000 1.0000
25.8300 794.0000 1.0000
25.8400 810.0000 1.0000
25.8500 794.0000 1.0000
25.8600 846.0000 1.0000
25.8700 825.0000 1.0000
25.8800 845.0000 1.0000
25.8900 847.0000 1.0000
25.9000 799.0000 1.0000
25.9100 821.0000 1.0000
25.9200 827.0000 1.0000
25.9300 830.0000 1.0000
25.9400 794.0000 1.0000
25.9500 799.0000 1.0000
25.9600 830.0000 1.0000
25.9700 833.0000 1.0000
25.9800 818.0000 1.0000
25.9900 867.0000 1.0000
26.0000 806.0000 1.0000
26.0100 862.0000 1.0000
26.0200 868.0000 1.0000
26.0300 865.0000 1.0000
26.0400 917.0000 1.0000
26.0500 858.0000 1.0000
26.0600 864.0000 1.0000
26.0700 887.0000 1.0000
26.0800 851.0000 1.0000
26.0900 899.0000 1.0000
26.1000 940.0000 1.0000
26.1100 899.0000 1.0000
26.1200 894.0000 1.0000
26.1300 939.0000 1.0000
26.1400 933.0000 1.0000
26.1500 962.0000 1.0000
26.1600 978.0000 1.0000
26.1700 1012.0000 1.0000
26.1800 1015.0000 1.0000
26.1900 1042.0000 1.0000
26.2000 1070.0000 1.0000
26.2100 1088.0000 1.0000
26.2200 1130.0000 1.0000
26.2300 1199.0000 1.0000
26.2400 1199.0000 1.0000
26.2500 1211.0000 1.0000
26.2600 1309.0000 1.0000
26.2700 1354.0000 1.0000
26.2800 1434.0000 1.0000
26.2900 1432.0000 1.0000
26.3000 1470.0000 1.0000
26.3100 1607.0000 1.0000
26.3200 1596.0000 1.0000
26.3300 1698.0000 1.0000
26.3400 1796.0000 1.0000
26.3500 1867.0000 1.0000
26.3600 2021.0000 1.0000
26.3700 2217.0000 1.0000
26.3800 2216.0000 1.0000
26.3900 2329.0000 1.0000
26.4000 2456.0000 1.0000
26.4100 2570.0000 1.0000
26.4200 2621.0000 1.0000
26.4300 2748.0000 1.0000
26.4400 2841.0000 1.0000
26.4500 2728.0000 1.0000
26.4600 2723.0000 1.0000
26.4700 2678.0000 1.0000
26.4800 2715.0000 1.0000
26.4900 2539.0000 1.0000
26.5000 2419.0000 1.0000
26.5100 2318.0000 1.0000
26.5200 2271.0000 1.0000
26.5300 2152.0000 1.0000
26.5400 1981.0000 1.0000
26.5500 1894.0000 1.0000
26.5600 1817.0000 1.0000
26.5700 1698.0000 1.0000
26.5800 1638.0000 1.0000
26.5900 1468.0000 1.0000
26.6000 1445.0000 1.0000
26.6100 1417.0000 1.0000
26.6200 1375.0000 1.0000
26.6300 1296.0000 1.0000
26.6400 1284.0000 1.0000
26.6500 1247.0000 1.0000
26.6600 1165.0000 1.0000
26.6700 1127.0000 1.0000
26.6800 1071.0000 1.0000
26.6900 1050.0000 1.0000
26.7000 1054.0000 1.0000
26.7100 982.0000 1.0000
26.7200 1001.0000 1.0000
26.7300 1009.0000 1.0000
26.7400 998.0000 1.0000
26.7500 989.0000 1.0000
26.7600 946.0000 1.0000
26.7700 917.0000 1.0000
26.7800 921.0000 1.0000
26.7900 902.0000 1.0000
26.8000 866.0000 1.0000
26.8100 887.0000 1.0000
26.8200 878.0000 1.0000
26.8300 834.0000 1.0000
26.8400 845.0000 1.0000
26.8500 835.0000 1.0000
26.8600 865.0000 1.0000
26.8700 864.0000 1.0000
26.8800 828.0000 1.0000
26.8900 823.0000 1.0000
26.9000 850.0000 1.0000
26.9100 801.0000 1.0000
26.9200 786.0000 1.0000
26.9300 805.0000 1.0000
26.9400 785.0000 1.0000
26.9500 830.0000 1.0000
26.9600 799.0000 1.0000
26.9700 796.0000 1.0000
26.9800 788.0000 1.0000
26.9900 801.0000 1.0000
27.0000 805.0000 1.0000
27.0100 781.0000 1.0000
27.0200 794.0000 1.0000
27.0300 801.0000 1.0000
27.0400 782.0000 1.0000
27.0500 804.0000 1.0000
27.0600 757.0000 1.0000
27.0700 759.0000 1.0000
27.0800 757.0000 1.0000
27.0900 803.0000 1.0000
27.1000 814.0000 1.0000
27.1100 741.0000 1.0000
27.1200 738.0000 1.0000
27.1300 736.0000 1.0000
27.1400 768.0000 1.0000
27.1500 759.0000 1.0000
27.1600 733.0000 1.0000
27.1700 768.0000 1.0000
27.1800 754.0000 1.0000
27.1900 776.0000 1.0000
27.2000 762.0000 1.0000
27.2100 682.0000 1.0000
27.2200 707.0000 1.0000
27.2300 712.0000 1.0000
27.2400 769.0000 1.0000
27.2500 706.0000 1.0000
27.2600 728.0000 1.0000
27.2700 749.0000 1.0000
27.2800 771.0000 1.0000
27.2900 745.0000 1.0000
27.3000 684.0000 1.0000
27.3100 682.0000 1.0000
27.3200 709.0000 1.0000
27.3300 721.0000 1.0000
27.3400 738.0000 1.0000
27.3500 728.0000 1.0000
27.3600 736.0000 1.0000
27.3700 701.0000 1.0000
27.3800 743.0000 1.0000
27.3900 679.0000 1.0000
27.4000 740.0000 1.0000
27.4100 717.0000 1.0000
27.4200 709.0000 1.0000
27.4300 690.0000 1.0000
27.4400 718.0000 1.0000
27.4500 711.0000 1.0000
27.4600 699.0000 1.0000
27.4700 698.0000 1.0000
27.4800 711.0000 1.0000
27.4900 705.0000 1.0000
27.5000 686.0000 1.0000
27.5100 739.0000 1.0000
27.5200 681.0000 1.0000
27.5300 693.0000 1.0000
27.5400 696.0000 1.0000
27.5500 671.0000 1.0000
27.5600 712.0000 1.0000
27.5700 706.0000 1.0000
27.5800 709.0000 1.0000
27.5900 742.0000 1.0000
27.6000 722.0000 1.0000
27.6100 676.0000 1.0000
27.6200 686.0000 1.0000
27.6300 694.0000 1.0000
27.6400 721.0000 1.0000
27.6500 692.0000 1.0000
27.6600 738.0000 1.0000
27.6700 713.0000 1.0000
27.6800 721.0000 1.0000
27.6900 726.0000 1.0000
27.7000 706.0000 1.0000
27.7100 735.0000 1.0000
27.7200 710.0000 1.0000
27.7300 700.0000 1.0000
27.7400 653.0000 1.0000
27.7500 683.0000 1.0000
27.7600 699.0000 1.0000
27.7700 690.0000 1.0000
27.7800 677.0000 1.0000
27.7900 690.0000 1.0000
27.8000 691.0000 1.0000
27.8100 726.0000 1.0000
27.8200 666.0000 1.0000
27.8300 615.0000 1.0000
27.8400 651.0000 1.0000
27.8500 692.0000 1.0000
27.8600 707.0000 1.0000
27.8700 667.0000 1.0000
27.8800 678.0000 1.0000
27.8900 708.0000 1.0000
27.9000 655.0000 1.0000
27.9100 726.0000 1.0000
27.9200 718.0000 1.0000
27.9300 698.0000 1.0000
27.9400 682.0000 1.0000
27.9500 666.0000 1.0000
27.9600 725.0000 1.0000
27.9700 684.0000 1.0000
27.9800 674.0000 1.0000
27.9900 677.0000 1.0000
28.0000 678.0000 1.0000
28.0100 706.0000 1.0000
28.0200 672.0000 1.0000
28.0300 685.0000 1.0000
28.0400 684.0000 1.0000
28.0500 732.0000 1.0000
28.0600 693.0000 1.0000
28.0700 692.0000 1.0000
28.0800 675.0000 1.0000
28.0900 644.0000 1.0000
28.1000 652.0000 1.0000
28.1100 665.0000 1.0000
28.1200 716.0000 1.0000
28.1300 678.0000 1.0000
28.1400 686.0000 1.0000
28.1500 722.0000 1.0000
28.1600 675.0000 1.0000
28.1700 690.0000 1.0000
28.1800 684.0000 1.0000
28.1900 616.0000 1.0000
28.2000 656.0000 1.0000
28.2100 671.0000 1.0000
28.2200 640.0000 1.0000
28.2300 660.0000 1.0000
28.2400 654.0000 1.0000
28.2500 684.0000 1.0000
28.2600 666.0000 1.0000
28.2700 683.0000 1.0000
28.2800 683.0000 1.0000
28.2900 641.0000 1.0000
28.3000 659.0000 1.0000
28.3100 696.0000 1.0000
28.3200 686.0000 1.0000
28.3300 679.0000 1.0000
28.3400 660.0000 1.0000
28.3500 654.0000 1.0000
28.3600 657.0000 1.0000
28.3700 662.0000 1.0000
28.3800 713.0000 1.0000
28.3900 658.0000 1.0000
28.4000 674.0000 1.0000
28.4100 669.0000 1.0000
28.4200 663.0000 1.0000
28.4300 656.0000 1.0000
28.4400 631.0000 1.0000
28.4500 629.0000 1.0000
28.4600 664.0000 1.0000
28.4700 657.0000 1.0000
28.4800 702.0000 1.0000
28.4900 656.0000 1.0000
28.5000 667.0000 1.0000
28.5100 671.0000 1.0000
28.5200 684.0000 1.0000
28.5300 654.0000 1.0000
28.5400 659.0000 1.0000
28.5500 640.0000 1.0000
28.5600 677.0000 1.0000
28.5700 661.0000 1.0000
28.5800 635.0000 1.0000
28.5900 649.0000 1.0000
28.6000 710.0000 1.0000
28.6100 660.0000 1.0000
28.6200 674.0000 1.0000
28.6300 669.0000 1.0000
28.6400 658.0000 1.0000
28.6500 646.0000 1.0000
28.6600 670.0000 1.0000
28.6700 678.0000 1.0000
28.6800 668.0000 1.0000
28.6900 656.0000 1.0000
28.7000 668.0000 1.0000
28.7100 704.0000 1.0000
28.7200 682.0000 1.0000
28.7300 710.0000 1.0000
28.7400 660.0000 1.0000
28.7500 632.0000 1.0000
28.7600 668.0000 1.0000
28.7700 662.0000 1.0000
28.7800 595.0000 1.0000
28.7900 613.0000 1.0000
28.8000 674.0000 1.0000
28.8100 619.0000 1.0000
28.8200 643.0000 1.0000
28.8300 610.0000 1.0000
28.8400 618.0000 1.0000
28.8500 662.0000 1.0000
28.8600 652.0000 1.0000
28.8700 625.0000 1.0000
28.8800 618.0000 1.0000
28.8900 663.0000 1.0000
28.9000 634.0000 1.0000
28.9100 647.0000 1.0000
28.9200 660.0000 1.0000
28.9300 646.0000 1.0000
28.9400 642.0000 1.0000
28.9500 679.0000 1.0000
28.9600 688.0000 1.0000
28.9700 627.0000 1.0000
28.9800 625.0000 1.0000
28.9900 645.0000 1.0000
29.0000 663.0000 1.0000
29.0100 641.0000 1.0000
29.0200 641.0000 1.0000
29.0300 625.0000 1.0000
29.0400 664.0000 1.0000
29.0500 615.0000 1.0000
29.0600 623.0000 1.0000
29.0700 653.0000 1.0000
29.0800 656.0000 1.0000
29.0900 674.0000 1.0000
29.1000 648.0000 1.0000
29.1100 632.0000 1.0000
29.1200 655.0000 1.0000
29.1300 599.0000 1.0000
29.1400 651.0000 1.0000
29.1500 664.0000 1.0000
29.1600 642.0000 1.0000
29.1700 661.0000 1.0000
29.1800 690.0000 1.0000
29.1900 666.0000 1.0000
29.2000 668.0000 1.0000
29.2100 614.0000 1.0000
29.2200 633.0000 1.0000
29.2300 669.0000 1.0000
29.2400 681.0000 1.0000
29.2500 611.0000 1.0000
29.2600 643.0000 1.0000
29.2700 640.0000 1.0000
29.2800 669.0000 1.0000
29.2900 661.0000 1.0000
29.3000 652.0000 1.0000
29.3100 619.0000 1.0000
29.3200 650.0000 1.0000
29.3300 630.0000 1.0000
29.3400 656.0000 1.0000
29.3500 657.0000 1.0000
29.3600 645.0000 1.0000
29.3700 658.0000 1.0000
29.3800 604.0000 1.0000
29.3900 618.0000 1.0000
29.4000 633.0000 1.0000
29.4100 625.0000 1.0000
29.4200 652.0000 1.0000
29.4300 662.0000 1.0000
29.4400 630.0000 1.0000
29.4500 672.0000 1.0000
29.4600 649.0000 1.0000
29.4700 603.0000 1.0000
29.4800 613.0000 1.0000
29.4900 610.0000 1.0000
29.5000 666.0000 1.0000
29.5100 648.0000 1.0000
29.5200 616.0000 1.0000
29.5300 643.0000 1.0000
29.5400 648.0000 1.0000
29.5500 670.0000 1.0000
29.5600 584.0000 1.0000
29.5700 664.0000 1.0000
29.5800 628.0000 1.0000
29.5900 626.0000 1.0000
29.6000 647.0000 1.0000
29.6100 595.0000 1.0000
29.6200 613.0000 1.0000
29.6300 648.0000 1.0000
29.6400 629.0000 1.0000
29.6500 621.0000 1.0000
29.6600 632.0000 1.0000
29.6700 637.0000 1.0000
29.6800 624.0000 1.0000
29.6900 600.0000 1.0000
29.7000 602.0000 1.0000
29.7100 643.0000 1.0000
29.7200 612.0000 1.0000
29.7300 636.0000 1.0000
29.7400 640.0000 1.0000
29.7500 588.0000 1.0000
29.7600 632.0000 1.0000
29.7700 615.0000 1.0000
29.7800 615.0000 1.0000
29.7900 663.0000 1.0000
29.8000 635.0000 1.0000
29.8100 586.0000 1.0000
29.8200 615.0000 1.0000
29.8300 598.0000 1.0000
29.8400 636.0000 1.0000
29.8500 651.0000 1.0000
29.8600 662.0000 1.0000
29.8700 619.0000 1.0000
29.8800 624.0000 1.0000
29.8900 625.0000 1.0000
29.9000 616.0000 1.0000
29.9100 593.0000 1.0000
29.9200 606.0000 1.0000
29.9300 596.0000 1.0000
29.9400 611.0000 1.0000
29.9500 624.0000 1.0000
29.9600 626.0000 1.0000
29.9700 583.0000 1.0000
29.9800 598.0000 1.0000
29.9900 618.0000 1.0000
30.0000 634.0000 1.0000
30.0100 641.0000 1.0000
30.0200 603.0000 1.0000
30.0300 644.0000 1.0000
30.0400 595.0000 1.0000
30.0500 645.0000 1.0000
30.0600 619.0000 1.0000
30.0700 621.0000 1.0000
30.0800 637.0000 1.0000
30.0900 623.0000 1.0000
30.1000 641.0000 1.0000
30.1100 644.0000 1.0000
30.1200 616.0000 1.0000
30.1300 629.0000 1.0000
30.1400 629.0000 1.0000
30.1500 629.0000 1.0000
30.1600 604.0000 1.0000
30.1700 642.0000 1.0000
30.1800 637.0000 1.0000
30.1900 626.0000 1.0000
30.2000 602.0000 1.0000
30.2100 625.0000 1.0000
30.2200 571.0000 1.0000
30.2300 632.0000 1.0000
30.2400 623.0000 1.0000
30.2500 637.0000 1.0000
30.2600 632.0000 1.0000
30.2700 637.0000 1.0000
30.2800 611.0000 1.0000
30.2900 595.0000 1.0000
30.3000 610.0000 1.0000
30.3100 641.0000 1.0000
30.3200 580.0000 1.0000
30.3300 554.0000 1.0000
30.3400 599.0000 1.0000
30.3500 560.0000 1.0000
30.3600 620.0000 1.0000
30.3700 639.0000 1.0000
30.3800 605.0000 1.0000
30.3900 622.0000 1.0000
30.4000 594.0000 1.0000
30.4100 590.0000 1.0000
30.4200 595.0000 1.0000
30.4300 609.0000 1.0000
30.4400 614.0000 1.0000
30.4500 613.0000 1.0000
30.4600 617.0000 1.0000
30.4700 611.0000 1.0000
30.4800 607.0000 1.0000
30.4900 585.0000 1.0000
30.5000 622.0000 1.0000
30.5100 599.0000 1.0000
30.5200 597.0000 1.0000
30.5300 628.0000 1.0000
30.5400 615.0000 1.0000
30.5500 609.0000 1.0000
30.5600 596.0000 1.0000
30.5700 592.0000 1.0000
30.5800 615.0000 1.0000
30.5900 599.0000 1.0000
30.6000 583.0000 1.0000
30.6100 595.0000 1.0000
30.6200 656.0000 1.0000
30.6300 581.0000 1.0000
30.6400 595.0000 1.0000
30.6500 598.0000 1.0000
30.6600 620.0000 1.0000
30.6700 599.0000 1.0000
30.6800 602.0000 1.0000
30.6900 601.0000 1.0000
30.7000 585.0000 1.0000
30.7100 611.0000 1.0000
30.7200 626.0000 1.0000
30.7300 626.0000 1.0000
30.7400 616.0000 1.0000
30.7500 602.0000 1.0000
30.7600 619.0000 1.0000
30.7700 600.0000 1.0000
30.7800 645.0000 1.0000
30.7900 558.0000 1.0000
30.8000 562.0000 1.0000
30.8100 604.0000 1.0000
30.8200 575.0000 1.0000
30.8300 592.0000 1.0000
30.8400 605.0000 1.0000
30.8500 579.0000 1.0000
30.8600 562.0000 1.0000
30.8700 656.0000 1.0000
30.8800 632.0000 1.0000
30.8900 603.0000 1.0000
30.9000 601.0000 1.0000
30.9100 612.0000 1.0000
30.9200 582.0000 1.0000
30.9300 608.0000 1.0000
30.9400 621.0000 1.0000
30.9500 590.0000 1.0000
30.9600 598.0000 1.0000
30.9700 629.0000 1.0000
30.9800 591.0000 1.0000
30.9900 633.0000 1.0000
31.0000 582.0000 1.0000
31.0100 601.0000 1.0000
31.0200 598.0000 1.0000
31.0300 607.0000 1.0000
31.0400 617.0000 1.0000
31.0500 596.0000 1.0000
31.0600 628.0000 1.0000
31.0700 623.0000 1.0000
31.0800 580.0000 1.0000
31.0900 630.0000 1.0000
31.1000 600.0000 1.0000
31.1100 591.0000 1.0000
31.1200 578.0000 1.0000
31.1300 615.0000 1.0000
31.1400 599.0000 1.0000
31.1500 593.0000 1.0000
31.1600 578.0000 1.0000
31.1700 601.0000 1.0000
31.1800 632.0000 1.0000
31.1900 592.0000 1.0000
31.2000 634.0000 1.0000
31.2100 607.0000 1.0000
31.2200 597.0000 1.0000
31.2300 598.0000 1.0000
31.2400 573.0000 1.0000
31.2500 596.0000 1.0000
31.2600 574.0000 1.0000
31.2700 606.0000 1.0000
31.2800 627.0000 1.0000
31.2900 605.0000 1.0000
31.3000 559.0000 1.0000
31.3100 573.0000 1.0000
31.3200 588.0000 1.0000
31.3300 585.0000 1.0000
31.3400 595.0000 1.0000
31.3500 616.0000 1.0000
31.3600 584.0000 1.0000
31.3700 598.0000 1.0000
31.3800 604.0000 1.0000
31.3900 592.0000 1.0000
31.4000 581.0000 1.0000
31.4100 605.0000 1.0000
31.4200 568.0000 1.0000
31.4300 613.0000 1.0000
31.4400 590.0000 1.0000
31.4500 599.0000 1.0000
31.4600 600.0000 1.0000
31.4700 602.0000 1.0000
31.4800 589.0000 1.0000
31.4900 549.0000 1.0000
31.5000 583.0000 1.0000
31.5100 574.0000 1.0000
31.5200 583.0000 1.0000
31.5300 606.0000 1.0000
31.5400 586.0000 1.0000
31.5500 623.0000 1.0000
31.5600 573.0000 1.0000
31.5700 579.0000 1.0000
31.5800 559.0000 1.0000
31.5900 558.0000 1.0000
31.6000 567.0000 1.0000
31.6100 589.0000 1.0000
31.6200 571.0000 1.0000
31.6300 541.0000 1.0000
31.6400 566.0000 1.0000
31.6500 552.0000 1.0000
31.6600 546.0000 1.0000
31.6700 582.0000 1.0000
31.6800 579.0000 1.0000
31.6900 571.0000 1.0000
31.7000 573.0000 1.0000
31.7100 571.0000 1.0000
31.7200 573.0000 1.0000
31.7300 547.0000 1.0000
31.7400 582.0000 1.0000
31.7500 581.0000 1.0000
31.7600 563.0000 1.0000
31.7700 575.0000 1.0000
31.7800 570.0000 1.0000
31.7900 593.0000 1.0000
31.8000 593.0000 1.0000
31.8100 579.0000 1.0000
31.8200 580.0000 1.0000
31.8300 546.0000 1.0000
31.8400 538.0000 1.0000
31.8500 534.0000 1.0000
31.8600 543.0000 1.0000
31.8700 534.0000 1.0000
31.8800 603.0000 1.0000
31.8900 589.0000 1.0000
31.9000 569.0000 1.0000
31.9100 578.0000 1.0000
31.9200 585.0000 1.0000
31.9300 533.0000 1.0000
31.9400 550.0000 1.0000
31.9500 555.0000 1.0000
31.9600 563.0000 1.0000
31.9700 584.0000 1.0000
31.9800 526.0000 1.0000
31.9900 584.0000 1.0000
32.0000 601.0000 1.0000
32.0100 577.0000 1.0000
32.0200 559.0000 1.0000
32.0300 560.0000 1.0000
32.0400 562.0000 1.0000
32.0500 575.0000 1.0000
32.0600 578.0000 1.0000
32.0700 588.0000 1.0000
32.0800 590.0000 1.0000
32.0900 552.0000 1.0000
32.1000 568.0000 1.0000
32.1100 562.0000 1.0000
32.1200 555.0000 1.0000
32.1300 550.0000 1.0000
32.1400 593.0000 1.0000
32.1500 577.0000 1.0000
32.1600 526.0000 1.0000
32.1700 599.0000 1.0000
32.1800 562.0000 1.0000
32.1900 637.0000 1.0000
32.2000 571.0000 1.0000
32.2100 600.0000 1.0000
32.2200 591.0000 1.0000
32.2300 593.0000 1.0000
32.2400 548.0000 1.0000
32.2500 577.0000 1.0000
32.2600 544.0000 1.0000
32.2700 586.0000 1.0000
32.2800 564.0000 1.0000
32.2900 561.0000 1.0000
32.3000 583.0000 1.0000
32.3100 539.0000 1.0000
32.3200 558.0000 1.0000
32.3300 541.0000 1.0000
32.3400 568.0000 1.0000
32.3500 552.0000 1.0000
32.3600 528.0000 1.0000
32.3700 582.0000 1.0000
32.3800 571.0000 1.0000
32.3900 557.0000 1.0000
32.4000 545.0000 1.0000
32.4100 551.0000 1.0000
32.4200 601.0000 1.0000
32.4300 551.0000 1.0000
32.4400 585.0000 1.0000
32.4500 574.0000 1.0000
32.4600 593.0000 1.0000
32.4700 563.0000 1.0000
32.4800 579.0000 1.0000
32.4900 557.0000 1.0000
32.5000 596.0000 1.0000
32.5100 558.0000 1.0000
32.5200 543.0000 1.0000
32.5300 571.0000 1.0000
32.5400 558.0000 1.0000
32.5500 524.0000 1.0000
32.5600 521.0000 1.0000
32.5700 528.0000 1.0000
32.5800 536.0000 1.0000
32.5900 567.0000 1.0000
32.6000 594.0000 1.0000
32.6100 563.0000 1.0000
32.6200 551.0000 1.0000
32.6300 566.0000 1.0000
32.6400 558.0000 1.0000
32.6500 539.0000 1.0000
32.6600 562.0000 1.0000
32.6700 549.0000 1.0000
32.6800 527.0000 1.0000
32.6900 564.0000 1.0000
32.7000 584.0000 1.0000
32.7100 560.0000 1.0000
32.7200 575.0000 1.0000
32.7300 534.0000 1.0000
32.7400 533.0000 1.0000
32.7500 577.0000 1.0000
32.7600 542.0000 1.0000
32.7700 580.0000 1.0000
32.7800 555.0000 1.0000
32.7900 587.0000 1.0000
32.8000 549.0000 1.0000
32.8100 588.0000 1.0000
32.8200 592.0000 1.0000
32.8300 581.0000 1.0000
32.8400 585.0000 1.0000
32.8500 565.0000 1.0000
32.8600 524.0000 1.0000
32.8700 551.0000 1.0000
32.8800 579.0000 1.0000
32.8900 589.0000 1.0000
32.9000 598.0000 1.0000
32.9100 603.0000 1.0000
32.9200 593.0000 1.0000
32.9300 586.0000 1.0000
32.9400 583.0000 1.0000
32.9500 580.0000 1.0000
32.9600 596.0000 1.0000
32.9700 593.0000 1.0000
32.9800 645.0000 1.0000
32.9900 590.0000 1.0000
33.0000 559.0000 1.0000
33.0100 588.0000 1.0000
33.0200 630.0000 1.0000
33.0300 612.0000 1.0000
33.0400 619.0000 1.0000
33.0500 599.0000 1.0000
33.0600 641.0000 1.0000
33.0700 661.0000 1.0000
33.0800 607.0000 1.0000
33.0900 640.0000 1.0000
33.1000 643.0000 1.0000
33.1100 667.0000 1.0000
33.1200 654.0000 1.0000
33.1300 654.0000 1.0000
33.1400 630.0000 1.0000
33.1500 631.0000 1.0000
33.1600 613.0000 1.0000
33.1700 610.0000 1.0000
33.1800 614.0000 1.0000
33.1900 602.0000 1.0000
33.2000 604.0000 1.0000
33.2100 657.0000 1.0000
33.2200 630.0000 1.0000
33.2300 642.0000 1.0000
33.2400 630.0000 1.0000
33.2500 641.0000 1.0000
33.2600 646.0000 1.0000
33.2700 598.0000 1.0000
33.2800 565.0000 1.0000
33.2900 597.0000 1.0000
33.3000 639.0000 1.0000
33.3100 631.0000 1.0000
33.3200 650.0000 1.0000
33.3300 635.0000 1.0000
33.3400 625.0000 1.0000
33.3500 650.0000 1.0000
33.3600 614.0000 1.0000
33.3700 649.0000 1.0000
33.3800 622.0000 1.0000
33.3900 676.0000 1.0000
33.4000 671.0000 1.0000
33.4100 690.0000 1.0000
33.4200 719.0000 1.0000
33.4300 673.0000 1.0000
33.4400 754.0000 1.0000
33.4500 728.0000 1.0000
33.4600 798.0000 1.0000
33.4700 723.0000 1.0000
33.4800 840.0000 1.0000
33.4900 814.0000 1.0000
33.5000 802.0000 1.0000
33.5100 855.0000 1.0000
33.5200 909.0000 1.0000
33.5300 945.0000 1.0000
33.5400 939.0000 1.0000
33.5500 928.0000 1.0000
33.5600 1048.0000 1.0000
33.5700 1079.0000 1.0000
33.5800 1106.0000 1.0000
33.5900 1180.0000 1.0000
33.6000 1205.0000 1.0000
33.6100 1215.0000 1.0000
33.6200 1297.0000 1.0000
33.6300 1384.0000 1.0000
33.6400 1330.0000 1.0000
33.6500 1421.0000 1.0000
33.6600 1376.0000 1.0000
33.6700 1369.0000 1.0000
33.6800 1346.0000 1.0000
33.6900 1338.0000 1.0000
33.7000 1291.0000 1.0000
33.7100 1218.0000 1.0000
33.7200 1262.0000 1.0000
33.7300 1183.0000 1.0000
33.7400 1160.0000 1.0000
33.7500 1076.0000 1.0000
33.7600 1078.0000 1.0000
33.7700 1031.0000 1.0000
33.7800 1002.0000 1.0000
33.7900 896.0000 1.0000
33.8000 923.0000 1.0000
33.8100 843.0000 1.0000
33.8200 808.0000 1.0000
33.8300 808.0000 1.0000
33.8400 809.0000 1.0000
33.8500 768.0000 1.0000
33.8600 800.0000 1.0000
33.8700 758.0000 1.0000
33.8800 735.0000 1.0000
33.8900 720.0000 1.0000
33.9000 716.0000 1.0000
33.9100 675.0000 1.0000
33.9200 657.0000 1.0000
33.9300 655.0000 1.0000
33.9400 648.0000 1.0000
33.9500 653.0000 1.0000
33.9600 654.0000 1.0000
33.9700 592.0000 1.0000
33.9800 606.0000 1.0000
33.9900 599.0000 1.0000
34.0000 614.0000 1.0000
34.0100 599.0000 1.0000
34.0200 604.0000 1.0000
34.0300 640.0000 1.0000
34.0400 594.0000 1.0000
34.0500 559.0000 1.0000
34.0600 559.0000 1.0000
34.0700 548.0000 1.0000
34.0800 540.0000 1.0000
34.0900 567.0000 1.0000
34.1000 526.0000 1.0000
34.1100 555.0000 1.0000
34.1200 557.0000 1.0000
34.1300 545.0000 1.0000
34.1400 563.0000 1.0000
34.1500 540.0000 1.0000
34.1600 497.0000 1.0000
34.1700 555.0000 1.0000
34.1800 545.0000 1.0000
34.1900 536.0000 1.0000
34.2000 548.0000 1.0000
34.2100 519.0000 1.0000
34.2200 550.0000 1.0000
34.2300 564.0000 1.0000
34.2400 505.0000 1.0000
34.2500 559.0000 1.0000
34.2600 549.0000 1.0000
34.2700 518.0000 1.0000
34.2800 551.0000 1.0000
34.2900 513.0000 1.0000
34.3000 490.0000 1.0000
34.3100 515.0000 1.0000
34.3200 574.0000 1.0000
34.3300 546.0000 1.0000
34.3400 500.0000 1.0000
34.3500 519.0000 1.0000
34.3600 509.0000 1.0000
34.3700 516.0000 1.0000
34.3800 518.0000 1.0000
34.3900 554.0000 1.0000
34.4000 530.0000 1.0000
34.4100 500.0000 1.0000
34.4200 506.0000 1.0000
34.4300 525.0000 1.0000
34.4400 518.0000 1.0000
34.4500 510.0000 1.0000
34.4600 537.0000 1.0000
34.4700 513.0000 1.0000
34.4800 494.0000 1.0000
34.4900 485.0000 1.0000
34.5000 491.0000 1.0000
34.5100 507.0000 1.0000
34.5200 503.0000 1.0000
34.5300 473.0000 1.0000
34.5400 543.0000 1.0000
34.5500 482.0000 1.0000
34.5600 482.0000 1.0000
34.5700 514.0000 1.0000
34.5800 475.0000 1.0000
34.5900 482.0000 1.0000
34.6000 470.0000 1.0000
34.6100 481.0000 1.0000
34.6200 466.0000 1.0000
34.6300 470.0000 1.0000
34.6400 515.0000 1.0000
34.6500 489.0000 1.0000
34.6600 524.0000 1.0000
34.6700 533.0000 1.0000
34.6800 497.0000 1.0000
34.6900 485.0000 1.0000
34.7000 475.0000 1.0000
34.7100 512.0000 1.0000
34.7200 476.0000 1.0000
34.7300 499.0000 1.0000
34.7400 480.0000 1.0000
34.7500 503.0000 1.0000
34.7600 498.0000 1.0000
34.7700 491.0000 1.0000
34.7800 480.0000 1.0000
34.7900 517.0000 1.0000
34.8000 504.0000 1.0000
34.8100 482.0000 1.0000
34.8200 515.0000 1.0000
34.8300 473.0000 1.0000
34.8400 497.0000 1.0000
34.8500 534.0000 1.0000
34.8600 458.0000 1.0000
34.8700 485.0000 1.0000
34.8800 474.0000 1.0000
34.8900 478.0000 1.0000
34.9000 505.0000 1.0000
34.9100 466.0000 1.0000
34.9200 508.0000 1.0000
34.9300 556.0000 1.0000
34.9400 483.0000 1.0000
34.9500 485.0000 1.0000
34.9600 471.0000 1.0000
34.9700 470.0000 1.0000
34.9800 491.0000 1.0000
34.9900 470.0000 1.0000
35.0000 475.0000 1.0000
35.0100 483.0000 1.0000
35.0200 485.0000 1.0000
35.0300 509.0000 1.0000
35.0400 483.0000 1.0000
35.0500 484.0000 1.0000
35.0600 491.0000 1.0000
35.0700 511.0000 1.0000
35.0800 522.0000 1.0000
35.0900 468.0000 1.0000
35.1000 516.0000 1.0000
35.1100 482.0000 1.0000
35.1200 442.0000 1.0000
35.1300 428.0000 1.0000
35.1400 490.0000 1.0000
35.1500 481.0000 1.0000
35.1600 494.0000 1.0000
35.1700 510.0000 1.0000
35.1800 464.0000 1.0000
35.1900 507.0000 1.0000
35.2000 487.0000 1.0000
35.2100 470.0000 1.0000
35.2200 501.0000 1.0000
35.2300 492.0000 1.0000
35.2400 483.0000 1.0000
35.2500 477.0000 1.0000
35.2600 511.0000 1.0000
35.2700 549.0000 1.0000
35.2800 547.0000 1.0000
35.2900 527.0000 1.0000
35.3000 488.0000 1.0000
35.3100 534.0000 1.0000
35.3200 582.0000 1.0000
35.3300 530.0000 1.0000
35.3400 543.0000 1.0000
35.3500 562.0000 1.0000
35.3600 582.0000 1.0000
35.3700 595.0000 1.0000
35.3800 593.0000 1.0000
35.3900 582.0000 1.0000
35.4000 618.0000 1.0000
35.4100 633.0000 1.0000
35.4200 629.0000 1.0000
35.4300 654.0000 1.0000
35.4400 675.0000 1.0000
35.4500 710.0000 1.0000
35.4600 726.0000 1.0000
35.4700 746.0000 1.0000
35.4800 706.0000 1.0000
35.4900 735.0000 1.0000
35.5000 797.0000 1.0000
35.5100 800.0000 1.0000
35.5200 835.0000 1.0000
35.5300 871.0000 1.0000
35.5400 951.0000 1.0000
35.5500 889.0000 1.0000
35.5600 925.0000 1.0000
35.5700 890.0000 1.0000
35.5800 940.0000 1.0000
35.5900 934.0000 1.0000
35.6000 904.0000 1.0000
35.6100 895.0000 1.0000
35.6200 859.0000 1.0000
35.6300 847.0000 1.0000
35.6400 821.0000 1.0000
35.6500 826.0000 1.0000
35.6600 817.0000 1.0000
35.6700 793.0000 1.0000
35.6800 693.0000 1.0000
35.6900 727.0000 1.0000
35.7000 703.0000 1.0000
35.7100 667.0000 1.0000
35.7200 650.0000 1.0000
35.7300 619.0000 1.0000
35.7400 632.0000 1.0000
35.7500 639.0000 1.0000
35.7600 569.0000 1.0000
35.7700 529.0000 1.0000
35.7800 587.0000 1.0000
35.7900 562.0000 1.0000
35.8000 576.0000 1.0000
35.8100 536.0000 1.0000
35.8200 533.0000 1.0000
35.8300 525.0000 1.0000
35.8400 547.0000 1.0000
35.8500 542.0000 1.0000
35.8600 502.0000 1.0000
35.8700 494.0000 1.0000
35.8800 506.0000 1.0000
35.8900 464.0000 1.0000
35.9000 468.0000 1.0000
35.9100 492.0000 1.0000
35.9200 518.0000 1.0000
35.9300 504.0000 1.0000
35.9400 491.0000 1.0000
35.9500 485.0000 1.0000
35.9600 466.0000 1.0000
35.9700 482.0000 1.0000
35.9800 522.0000 1.0000
35.9900 459.0000 1.0000
36.0000 449.0000 1.0000
36.0100 456.0000 1.0000
36.0200 479.0000 1.0000
36.0300 456.0000 1.0000
36.0400 464.0000 1.0000
36.0500 457.0000 1.0000
36.0600 472.0000 1.0000
36.0700 486.0000 1.0000
36.0800 439.0000 1.0000
36.0900 455.0000 1.0000
36.1000 435.0000 1.0000
36.1100 445.0000 1.0000
36.1200 464.0000 1.0000
36.1300 431.0000 1.0000
36.1400 459.0000 1.0000
36.1500 452.0000 1.0000
36.1600 430.0000 1.0000
36.1700 468.0000 1.0000
36.1800 439.0000 1.0000
36.1900 433.0000 1.0000
36.2000 433.0000 1.0000
36.2100 470.0000 1.0000
36.2200 442.0000 1.0000
36.2300 431.0000 1.0000
36.2400 471.0000 1.0000
36.2500 442.0000 1.0000
36.2600 443.0000 1.0000
36.2700 435.0000 1.0000
36.2800 448.0000 1.0000
36.2900 429.0000 1.0000
36.3000 464.0000 1.0000
36.3100 454.0000 1.0000
36.3200 462.0000 1.0000
36.3300 447.0000 1.0000
36.3400 440.0000 1.0000
36.3500 438.0000 1.0000
36.3600 427.0000 1.0000
36.3700 434.0000 1.0000
36.3800 404.0000 1.0000
36.3900 427.0000 1.0000
36.4000 418.0000 1.0000
36.4100 449.0000 1.0000
36.4200 444.0000 1.0000
36.4300 462.0000 1.0000
36.4400 429.0000 1.0000
36.4500 441.0000 1.0000
36.4600 449.0000 1.0000
36.4700 453.0000 1.0000
36.4800 462.0000 1.0000
36.4900 444.0000 1.0000
36.5000 444.0000 1.0000
36.5100 416.0000 1.0000
36.5200 395.0000 1.0000
36.5300 457.0000 1.0000
36.5400 447.0000 1.0000
36.5500 476.0000 1.0000
36.5600 436.0000 1.0000
36.5700 411.0000 1.0000
36.5800 451.0000 1.0000
36.5900 452.0000 1.0000
36.6000 412.0000 1.0000
36.6100 446.0000 1.0000
36.6200 428.0000 1.0000
36.6300 471.0000 1.0000
36.6400 398.0000 1.0000
36.6500 456.0000 1.0000
36.6600 435.0000 1.0000
36.6700 447.0000 1.0000
36.6800 416.0000 1.0000
36.6900 438.0000 1.0000
36.7000 454.0000 1.0000
36.7100 482.0000 1.0000
36.7200 485.0000 1.0000
36.7300 452.0000 1.0000
36.7400 460.0000 1.0000
36.7500 417.0000 1.0000
36.7600 446.0000 1.0000
36.7700 416.0000 1.0000
36.7800 468.0000 1.0000
36.7900 428.0000 1.0000
36.8000 460.0000 1.0000
36.8100 492.0000 1.0000
36.8200 445.0000 1.0000
36.8300 470.0000 1.0000
36.8400 452.0000 1.0000
36.8500 425.0000 1.0000
36.8600 433.0000 1.0000
36.8700 432.0000 1.0000
36.8800 436.0000 1.0000
36.8900 444.0000 1.0000
36.9000 437.0000 1.0000
36.9100 440.0000 1.0000
36.9200 455.0000 1.0000
36.9300 458.0000 1.0000
36.9400 487.0000 1.0000
36.9500 463.0000 1.0000
36.9600 457.0000 1.0000
36.9700 442.0000 1.0000
36.9800 418.0000 1.0000
36.9900 451.0000 1.0000
37.0000 446.0000 1.0000
37.0100 470.0000 1.0000
37.0200 462.0000 1.0000
37.0300 443.0000 1.0000
37.0400 446.0000 1.0000
37.0500 427.0000 1.0000
37.0600 446.0000 1.0000
37.0700 440.0000 1.0000
37.0800 446.0000 1.0000
37.0900 438.0000 1.0000
37.1000 466.0000 1.0000
37.1100 470.0000 1.0000
37.1200 491.0000 1.0000
37.1300 435.0000 1.0000
37.1400 445.0000 1.0000
37.1500 438.0000 1.0000
37.1600 479.0000 1.0000
37.1700 463.0000 1.0000
37.1800 435.0000 1.0000
37.1900 434.0000 1.0000
37.2000 448.0000 1.0000
37.2100 474.0000 1.0000
37.2200 489.0000 1.0000
37.2300 484.0000 1.0000
37.2400 474.0000 1.0000
37.2500 500.0000 1.0000
37.2600 477.0000 1.0000
37.2700 489.0000 1.0000
37.2800 491.0000 1.0000
37.2900 491.0000 1.0000
37.3000 503.0000 1.0000
37.3100 497.0000 1.0000
37.3200 525.0000 1.0000
37.3300 537.0000 1.0000
37.3400 525.0000 1.0000
37.3500 518.0000 1.0000
37.3600 524.0000 1.0000
37.3700 553.0000 1.0000
37.3800 532.0000 1.0000
37.3900 595.0000 1.0000
37.4000 599.0000 1.0000
37.4100 623.0000 1.0000
37.4200 628.0000 1.0000
37.4300 641.0000 1.0000
37.4400 661.0000 1.0000
37.4500 664.0000 1.0000
37.4600 687.0000 1.0000
37.4700 724.0000 1.0000
37.4800 802.0000 1.0000
37.4900 806.0000 1.0000
37.5000 817.0000 1.0000
37.5100 871.0000 1.0000
37.5200 970.0000 1.0000
37.5300 999.0000 1.0000
37.5400 1039.0000 1.0000
37.5500 1123.0000 1.0000
37.5600 1170.0000 1.0000
37.5700 1214.0000 1.0000
37.5800 1340.0000 1.0000
37.5900 1427.0000 1.0000
37.6000 1457.0000 1.0000
37.6100 1552.0000 1.0000
37.6200 1626.0000 1.0000
37.6300 1755.0000 1.0000
37.6400 1811.0000 1.0000
37.6500 1815.0000 1.0000
37.6600 1893.0000 1.0000
37.6700 1949.0000 1.0000
37.6800 1904.0000 1.0000
37.6900 1929.0000 1.0000
37.7000 1935.0000 1.0000
37.7100 2065.0000 1.0000
37.7200 1999.0000 1.0000
37.7300 2000.0000 1.0000
37.7400 1916.0000 1.0000
37.7500 1941.0000 1.0000
37.7600 1862.0000 1.0000
37.7700 1927.0000 1.0000
37.7800 1862.0000 1.0000
37.7900 1769.0000 1.0000
37.8000 1693.0000 1.0000
37.8100 1631.0000 1.0000
37.8200 1605.0000 1.0000
37.8300 1441.0000 1.0000
37.8400 1467.0000 1.0000
37.8500 1372.0000 1.0000
37.8600 1317.0000 1.0000
37.8700 1265.0000 1.0000
37.8800 1214.0000 1.0000
37.8900 1178.0000 1.0000
37.9000 1053.0000 1.0000
37.9100 1030.0000 1.0000
37.9200 996.0000 1.0000
37.9300 919.0000 1.0000
37.9400 885.0000 1.0000
37.9500 827.0000 1.0000
37.9600 818.0000 1.0000
37.9700 782.0000 1.0000
37.9800 710.0000 1.0000
37.9900 704.0000 1.0000
38.0000 669.0000 1.0000
38.0100 618.0000 1.0000
38.0200 618.0000 1.0000
38.0300 579.0000 1.0000
38.0400 621.0000 1.0000
38.0500 569.0000 1.0000
38.0600 546.0000 1.0000
38.0700 541.0000 1.0000
38.0800 527.0000 1.0000
38.0900 508.0000 1.0000
38.1000 495.0000 1.0000
38.1100 524.0000 1.0000
38.1200 515.0000 1.0000
38.1300 501.0000 1.0000
38.1400 477.0000 1.0000
38.1500 471.0000 1.0000
38.1600 444.0000 1.0000
38.1700 434.0000 1.0000
38.1800 486.0000 1.0000
38.1900 449.0000 1.0000
38.2000 471.0000 1.0000
38.2100 438.0000 1.0000
38.2200 466.0000 1.0000
38.2300 414.0000 1.0000
38.2400 416.0000 1.0000
38.2500 447.0000 1.0000
38.2600 405.0000 1.0000
38.2700 412.0000 1.0000
38.2800 423.0000 1.0000
38.2900 435.0000 1.0000
38.3000 414.0000 1.0000
38.3100 415.0000 1.0000
38.3200 413.0000 1.0000
38.3300 459.0000 1.0000
38.3400 419.0000 1.0000
38.3500 418.0000 1.0000
38.3600 403.0000 1.0000
38.3700 405.0000 1.0000
38.3800 457.0000 1.0000
38.3900 439.0000 1.0000
38.4000 426.0000 1.0000
38.4100 420.0000 1.0000
38.4200 446.0000 1.0000
38.4300 405.0000 1.0000
38.4400 440.0000 1.0000
38.4500 436.0000 1.0000
38.4600 424.0000 1.0000
38.4700 395.0000 1.0000
38.4800 409.0000 1.0000
38.4900 423.0000 1.0000
38.5000 412.0000 1.0000
38.5100 398.0000 1.0000
38.5200 399.0000 1.0000
38.5300 424.0000 1.0000
38.5400 429.0000 1.0000
38.5500 411.0000 1.0000
38.5600 407.0000 1.0000
38.5700 406.0000 1.0000
38.5800 392.0000 1.0000
38.5900 406.0000 1.0000
38.6000 414.0000 1.0000
38.6100 401.0000 1.0000
38.6200 406.0000 1.0000
38.6300 394.0000 1.0000
38.6400 412.0000 1.0000
38.6500 429.0000 1.0000
38.6600 410.0000 1.0000
38.6700 404.0000 1.0000
38.6800 434.0000 1.0000
38.6900 404.0000 1.0000
38.7000 420.0000 1.0000
38.7100 397.0000 1.0000
38.7200 425.0000 1.0000
38.7300 395.0000 1.0000
38.7400 428.0000 1.0000
38.7500 422.0000 1.0000
38.7600 420.0000 1.0000
38.7700 429.0000 1.0000
38.7800 406.0000 1.0000
38.7900 421.0000 1.0000
38.8000 386.0000 1.0000
38.8100 414.0000 1.0000
38.8200 409.0000 1.0000
38.8300 412.0000 1.0000
38.8400 399.0000 1.0000
38.8500 414.0000 1.0000
38.8600 458.0000 1.0000
38.8700 413.0000 1.0000
38.8800 401.0000 1.0000
38.8900 407.0000 1.0000
38.9000 390.0000 1.0000
38.9100 379.0000 1.0000
38.9200 405.0000 1.0000
38.9300 411.0000 1.0000
38.9400 431.0000 1.0000
38.9500 400.0000 1.0000
38.9600 380.0000 1.0000
38.9700 405.0000 1.0000
38.9800 385.0000 1.0000
38.9900 415.0000 1.0000
39.0000 407.0000 1.0000
39.0100 413.0000 1.0000
39.0200 387.0000 1.0000
39.0300 388.0000 1.0000
39.0400 416.0000 1.0000
39.0500 386.0000 1.0000
39.0600 348.0000 1.0000
39.0700 399.0000 1.0000
39.0800 399.0000 1.0000
39.0900 378.0000 1.0000
39.1000 378.0000 1.0000
39.1100 383.0000 1.0000
39.1200 368.0000 1.0000
39.1300 385.0000 1.0000
39.1400 368.0000 1.0000
39.1500 369.0000 1.0000
39.1600 404.0000 1.0000
39.1700 388.0000 1.0000
39.1800 403.0000 1.0000
39.1900 408.0000 1.0000
39.2000 368.0000 1.0000
39.2100 403.0000 1.0000
39.2200 380.0000 1.0000
39.2300 358.0000 1.0000
39.2400 382.0000 1.0000
39.2500 391.0000 1.0000
39.2600 353.0000 1.0000
39.2700 373.0000 1.0000
39.2800 387.0000 1.0000
39.2900 410.0000 1.0000
39.3000 394.0000 1.0000
39.3100 392.0000 1.0000
39.3200 382.0000 1.0000
39.3300 375.0000 1.0000
39.3400 411.0000 1.0000
39.3500 363.0000 1.0000
39.3600 413.0000 1.0000
39.3700 397.0000 1.0000
39.3800 376.0000 1.0000
39.3900 384.0000 1.0000
39.4000 371.0000 1.0000
39.4100 359.0000 1.0000
39.4200 372.0000 1.0000
39.4300 362.0000 1.0000
39.4400 375.0000 1.0000
39.4500 380.0000 1.0000
39.4600 384.0000 1.0000
39.4700 374.0000 1.0000
39.4800 355.0000 1.0000
39.4900 366.0000 1.0000
39.5000 377.0000 1.0000
39.5100 368.0000 1.0000
39.5200 369.0000 1.0000
39.5300 400.0000 1.0000
39.5400 365.0000 1.0000
39.5500 369.0000 1.0000
39.5600 367.0000 1.0000
39.5700 358.0000 1.0000
39.5800 346.0000 1.0000
39.5900 387.0000 1.0000
39.6000 340.0000 1.0000
39.6100 378.0000 1.0000
39.6200 371.0000 1.0000
39.6300 372.0000 1.0000
39.6400 390.0000 1.0000
39.6500 359.0000 1.0000
39.6600 364.0000 1.0000
39.6700 385.0000 1.0000
39.6800 393.0000 1.0000
39.6900 377.0000 1.0000
39.7000 375.0000 1.0000
39.7100 372.0000 1.0000
39.7200 361.0000 1.0000
39.7300 342.0000 1.0000
39.7400 375.0000 1.0000
39.7500 359.0000 1.0000
39.7600 334.0000 1.0000
39.7700 377.0000 1.0000
39.7800 358.0000 1.0000
39.7900 361.0000 1.0000
39.8000 351.0000 1.0000
39.8100 384.0000 1.0000
39.8200 377.0000 1.0000
39.8300 352.0000 1.0000
39.8400 385.0000 1.0000
39.8500 374.0000 1.0000
39.8600 385.0000 1.0000
39.8700 374.0000 1.0000
39.8800 379.0000 1.0000
39.8900 405.0000 1.0000
39.9000 366.0000 1.0000
39.9100 357.0000 1.0000
39.9200 354.0000 1.0000
39.9300 384.0000 1.0000
39.9400 388.0000 1.0000
39.9500 344.0000 1.0000
39.9600 367.0000 1.0000
39.9700 364.0000 1.0000
39.9800 358.0000 1.0000
39.9900 350.0000 1.0000
40.0000 342.0000 1.0000
40.0100 354.0000 1.0000
40.0200 380.0000 1.0000
40.0300 349.0000 1.0000
40.0400 366.0000 1.0000
40.0500 415.0000 1.0000
40.0600 394.0000 1.0000
40.0700 370.0000 1.0000
40.0800 373.0000 1.0000
40.0900 364.0000 1.0000
40.1000 359.0000 1.0000
40.1100 355.0000 1.0000
40.1200 365.0000 1.0000
40.1300 369.0000 1.0000
40.1400 349.0000 1.0000
40.1500 351.0000 1.0000
40.1600 385.0000 1.0000
40.1700 373.0000 1.0000
40.1800 360.0000 1.0000
40.1900 329.0000 1.0000
40.2000 337.0000 1.0000
40.2100 337.0000 1.0000
40.2200 348.0000 1.0000
40.2300 351.0000 1.0000
40.2400 391.0000 1.0000
40.2500 369.0000 1.0000
40.2600 350.0000 1.0000
40.2700 366.0000 1.0000
40.2800 384.0000 1.0000
40.2900 363.0000 1.0000
40.3000 353.0000 1.0000
40.3100 394.0000 1.0000
40.3200 379.0000 1.0000
40.3300 346.0000 1.0000
40.3400 352.0000 1.0000
40.3500 361.0000 1.0000
40.3600 379.0000 1.0000
40.3700 386.0000 1.0000
40.3800 362.0000 1.0000
40.3900 343.0000 1.0000
40.4000 352.0000 1.0000
40.4100 338.0000 1.0000
40.4200 362.0000 1.0000
40.4300 380.0000 1.0000
40.4400 342.0000 1.0000
40.4500 388.0000 1.0000
40.4600 393.0000 1.0000
40.4700 385.0000 1.0000
40.4800 340.0000 1.0000
40.4900 341.0000 1.0000
40.5000 350.0000 1.0000
40.5100 347.0000 1.0000
40.5200 330.0000 1.0000
40.5300 377.0000 1.0000
40.5400 399.0000 1.0000
40.5500 382.0000 1.0000
40.5600 346.0000 1.0000
40.5700 324.0000 1.0000
40.5800 365.0000 1.0000
40.5900 344.0000 1.0000
40.6000 368.0000 1.0000
40.6100 382.0000 1.0000
40.6200 376.0000 1.0000
40.6300 364.0000 1.0000
40.6400 368.0000 1.0000
40.6500 388.0000 1.0000
40.6600 349.0000 1.0000
40.6700 368.0000 1.0000
40.6800 361.0000 1.0000
40.6900 400.0000 1.0000
40.7000 378.0000 1.0000
40.7100 382.0000 1.0000
40.7200 365.0000 1.0000
40.7300 405.0000 1.0000
40.7400 351.0000 1.0000
40.7500 359.0000 1.0000
40.7600 375.0000 1.0000
40.7700 389.0000 1.0000
40.7800 397.0000 1.0000
40.7900 409.0000 1.0000
40.8000 390.0000 1.0000
40.8100 361.0000 1.0000
40.8200 376.0000 1.0000
40.8300 408.0000 1.0000
40.8400 398.0000 1.0000
40.8500 400.0000 1.0000
40.8600 362.0000 1.0000
40.8700 353.0000 1.0000
40.8800 392.0000 1.0000
40.8900 374.0000 1.0000
40.9000 371.0000 1.0000
40.9100 368.0000 1.0000
40.9200 377.0000 1.0000
40.9300 379.0000 1.0000
40.9400 389.0000 1.0000
40.9500 393.0000 1.0000
40.9600 391.0000 1.0000
40.9700 374.0000 1.0000
40.9800 354.0000 1.0000
40.9900 389.0000 1.0000
41.0000 361.0000 1.0000
41.0100 369.0000 1.0000
41.0200 370.0000 1.0000
41.0300 397.0000 1.0000
41.0400 356.0000 1.0000
41.0500 342.0000 1.0000
41.0600 366.0000 1.0000
41.0700 356.0000 1.0000
41.0800 366.0000 1.0000
41.0900 357.0000 1.0000
41.1000 374.0000 1.0000
41.1100 358.0000 1.0000
41.1200 348.0000 1.0000
41.1300 374.0000 1.0000
41.1400 368.0000 1.0000
41.1500 367.0000 1.0000
41.1600 384.0000 1.0000
41.1700 380.0000 1.0000
41.1800 384.0000 1.0000
41.1900 387.0000 1.0000
41.2000 334.0000 1.0000
41.2100 361.0000 1.0000
41.2200 358.0000 1.0000
41.2300 350.0000 1.0000
41.2400 352.0000 1.0000
41.2500 347.0000 1.0000
41.2600 353.0000 1.0000
41.2700 345.0000 1.0000
41.2800 353.0000 1.0000
41.2900 360.0000 1.0000
41.3000 366.0000 1.0000
41.3100 358.0000 1.0000
41.3200 366.0000 1.0000
41.3300 349.0000 1.0000
41.3400 377.0000 1.0000
41.3500 383.0000 1.0000
41.3600 358.0000 1.0000
41.3700 350.0000 1.0000
41.3800 324.0000 1.0000
41.3900 383.0000 1.0000
41.4000 351.0000 1.0000
41.4100 347.0000 1.0000
41.4200 354.0000 1.0000
41.4300 343.0000 1.0000
41.4400 354.0000 1.0000
41.4500 344.0000 1.0000
41.4600 349.0000 1.0000
41.4700 359.0000 1.0000
41.4800 375.0000 1.0000
41.4900 342.0000 1.0000
41.5000 350.0000 1.0000
41.5100 339.0000 1.0000
41.5200 361.0000 1.0000
41.5300 351.0000 1.0000
41.5400 337.0000 1.0000
41.5500 350.0000 1.0000
41.5600 353.0000 1.0000
41.5700 377.0000 1.0000
41.5800 363.0000 1.0000
41.5900 356.0000 1.0000
41.6000 352.0000 1.0000
41.6100 351.0000 1.0000
41.6200 364.0000 1.0000
41.6300 379.0000 1.0000
41.6400 358.0000 1.0000
41.6500 345.0000 1.0000
41.6600 386.0000 1.0000
41.6700 359.0000 1.0000
41.6800 364.0000 1.0000
41.6900 334.0000 1.0000
41.7000 340.0000 1.0000
41.7100 348.0000 1.0000
41.7200 374.0000 1.0000
41.7300 353.0000 1.0000
41.7400 353.0000 1.0000
41.7500 366.0000 1.0000
41.7600 333.0000 1.0000
41.7700 348.0000 1.0000
41.7800 328.0000 1.0000
41.7900 369.0000 1.0000
41.8000 350.0000 1.0000
41.8100 346.0000 1.0000
41.8200 331.0000 1.0000
41.8300 331.0000 1.0000
41.8400 340.0000 1.0000
41.8500 328.0000 1.0000
41.8600 325.0000 1.0000
41.8700 344.0000 1.0000
41.8800 347.0000 1.0000
41.8900 381.0000 1.0000
41.9000 361.0000 1.0000
41.9100 338.0000 1.0000
41.9200 342.0000 1.0000
41.9300 349.0000 1.0000
41.9400 361.0000 1.0000
41.9500 366.0000 1.0000
41.9600 325.0000 1.0000
41.9700 364.0000 1.0000
41.9800 368.0000 1.0000
41.9900 389.0000 1.0000
42.0000 351.0000 1.0000
42.0100 343.0000 1.0000
42.0200 369.0000 1.0000
42.0300 351.0000 1.0000
42.0400 371.0000 1.0000
42.0500 365.0000 1.0000
42.0600 347.0000 1.0000
42.0700 335.0000 1.0000
42.0800 368.0000 1.0000
42.0900 354.0000 1.0000
42.1000 388.0000 1.0000
42.1100 347.0000 1.0000
42.1200 350.0000 1.0000
42.1300 350.0000 1.0000
42.1400 360.0000 1.0000
42.1500 374.0000 1.0000
42.1600 351.0000 1.0000
42.1700 390.0000 1.0000
42.1800 354.0000 1.0000
42.1900 362.0000 1.0000
42.2000 385.0000 1.0000
42.2100 360.0000 1.0000
42.2200 368.0000 1.0000
42.2300 367.0000 1.0000
42.2400 380.0000 1.0000
42.2500 355.0000 1.0000
42.2600 386.0000 1.0000
42.2700 352.0000 1.0000
42.2800 378.0000 1.0000
42.2900 373.0000 1.0000
42.3000 353.0000 1.0000
42.3100 376.0000 1.0000
42.3200 380.0000 1.0000
42.3300 384.0000 1.0000
42.3400 376.0000 1.0000
42.3500 374.0000 1.0000
42.3600 396.0000 1.0000
42.3700 387.0000 1.0000
42.3800 370.0000 1.0000
42.3900 379.0000 1.0000
42.4000 445.0000 1.0000
42.4100 391.0000 1.0000
42.4200 360.0000 1.0000
42.4300 383.0000 1.0000
42.4400 396.0000 1.0000
42.4500 388.0000 1.0000
42.4600 401.0000 1.0000
42.4700 371.0000 1.0000
42.4800 383.0000 1.0000
42.4900 381.0000 1.0000
42.5000 379.0000 1.0000
42.5100 388.0000 1.0000
42.5200 397.0000 1.0000
42.5300 371.0000 1.0000
42.5400 368.0000 1.0000
42.5500 347.0000 1.0000
42.5600 369.0000 1.0000
42.5700 360.0000 1.0000
42.5800 395.0000 1.0000
42.5900 366.0000 1.0000
42.6000 364.0000 1.0000
42.6100 336.0000 1.0000
42.6200 378.0000 1.0000
42.6300 349.0000 1.0000
42.6400 343.0000 1.0000
42.6500 335.0000 1.0000
42.6600 341.0000 1.0000
42.6700 372.0000 1.0000
42.6800 338.0000 1.0000
42.6900 355.0000 1.0000
42.7000 331.0000 1.0000
42.7100 371.0000 1.0000
42.7200 360.0000 1.0000
42.7300 326.0000 1.0000
42.7400 333.0000 1.0000
42.7500 329.0000 1.0000
42.7600 337.0000 1.0000
42.7700 340.0000 1.0000
42.7800 329.0000 1.0000
42.7900 361.0000 1.0000
42.8000 357.0000 1.0000
42.8100 362.0000 1.0000
42.8200 346.0000 1.0000
42.8300 351.0000 1.0000
42.8400 338.0000 1.0000
42.8500 316.0000 1.0000
42.8600 344.0000 1.0000
42.8700 347.0000 1.0000
42.8800 349.0000 1.0000
42.8900 328.0000 1.0000
42.9000 338.0000 1.0000
42.9100 355.0000 1.0000
42.9200 353.0000 1.0000
42.9300 351.0000 1.0000
42.9400 339.0000 1.0000
42.9500 356.0000 1.0000
42.9600 329.0000 1.0000
42.9700 354.0000 1.0000
42.9800 353.0000 1.0000
42.9900 357.0000 1.0000
43.0000 330.0000 1.0000
43.0100 327.0000 1.0000
43.0200 351.0000 1.0000
43.0300 309.0000 1.0000
43.0400 325.0000 1.0000
43.0500 323.0000 1.0000
43.0600 344.0000 1.0000
43.0700 344.0000 1.0000
43.0800 363.0000 1.0000
43.0900 345.0000 1.0000
43.1000 320.0000 1.0000
43.1100 363.0000 1.0000
43.1200 368.0000 1.0000
43.1300 337.0000 1.0000
43.1400 349.0000 1.0000
43.1500 359.0000 1.0000
43.1600 343.0000 1.0000
43.1700 389.0000 1.0000
43.1800 344.0000 1.0000
43.1900 327.0000 1.0000
43.2000 339.0000 1.0000
43.2100 339.0000 1.0000
43.2200 341.0000 1.0000
43.2300 339.0000 1.0000
43.2400 317.0000 1.0000
43.2500 339.0000 1.0000
43.2600 380.0000 1.0000
43.2700 348.0000 1.0000
43.2800 356.0000 1.0000
43.2900 339.0000 1.0000
43.3000 360.0000 1.0000
43.3100 350.0000 1.0000
43.3200 349.0000 1.0000
43.3300 345.0000 1.0000
43.3400 335.0000 1.0000
43.3500 319.0000 1.0000
43.3600 324.0000 1.0000
43.3700 340.0000 1.0000
43.3800 356.0000 1.0000
43.3900 353.0000 1.0000
43.4000 373.0000 1.0000
43.4100 375.0000 1.0000
43.4200 344.0000 1.0000
43.4300 374.0000 1.0000
43.4400 363.0000 1.0000
43.4500 347.0000 1.0000
43.4600 351.0000 1.0000
43.4700 354.0000 1.0000
43.4800 331.0000 1.0000
43.4900 360.0000 1.0000
43.5000 341.0000 1.0000
43.5100 361.0000 1.0000
43.5200 353.0000 1.0000
43.5300 343.0000 1.0000
43.5400 364.0000 1.0000
43.5500 359.0000 1.0000
43.5600 347.0000 1.0000
43.5700 364.0000 1.0000
43.5800 372.0000 1.0000
43.5900 350.0000 1.0000
43.6000 358.0000 1.0000
43.6100 329.0000 1.0000
43.6200 343.0000 1.0000
43.6300 378.0000 1.0000
43.6400 350.0000 1.0000
43.6500 365.0000 1.0000
43.6600 397.0000 1.0000
43.6700 355.0000 1.0000
43.6800 367.0000 1.0000
43.6900 349.0000 1.0000
43.7000 370.0000 1.0000
43.7100 336.0000 1.0000
43.7200 368.0000 1.0000
43.7300 344.0000 1.0000
43.7400 348.0000 1.0000
43.7500 332.0000 1.0000
43.7600 351.0000 1.0000
43.7700 354.0000 1.0000
43.7800 335.0000 1.0000
43.7900 337.0000 1.0000
43.8000 311.0000 1.0000
43.8100 358.0000 1.0000
43.8200 348.0000 1.0000
43.8300 317.0000 1.0000
43.8400 335.0000 1.0000
43.8500 337.0000 1.0000
43.8600 354.0000 1.0000
43.8700 366.0000 1.0000
43.8800 320.0000 1.0000
43.8900 359.0000 1.0000
43.9000 345.0000 1.0000
43.9100 311.0000 1.0000
43.9200 342.0000 1.0000
43.9300 332.0000 1.0000
43.9400 335.0000 1.0000
43.9500 357.0000 1.0000
43.9600 363.0000 1.0000
43.9700 333.0000 1.0000
43.9800 303.0000 1.0000
43.9900 305.0000 1.0000
44.0000 297.0000 1.0000
44.0100 321.0000 1.0000
44.0200 342.0000 1.0000
44.0300 349.0000 1.0000
44.0400 313.0000 1.0000
44.0500 356.0000 1.0000
44.0600 309.0000 1.0000
44.0700 353.0000 1.0000
44.0800 356.0000 1.0000
44.0900 345.0000 1.0000
44.1000 320.0000 1.0000
44.1100 340.0000 1.0000
44.1200 303.0000 1.0000
44.1300 300.0000 1.0000
44.1400 333.0000 1.0000
44.1500 339.0000 1.0000
44.1600 333.0000 1.0000
44.1700 331.0000 1.0000
44.1800 334.0000 1.0000
44.1900 351.0000 1.0000
44.2000 354.0000 1.0000
44.2100 327.0000 1.0000
44.2200 329.0000 1.0000
44.2300 328.0000 1.0000
44.2400 324.0000 1.0000
44.2500 326.0000 1.0000
44.2600 321.0000 1.0000
44.2700 333.0000 1.0000
44.2800 322.0000 1.0000
44.2900 355.0000 1.0000
44.3000 329.0000 1.0000
44.3100 337.0000 1.0000
44.3200 328.0000 1.0000
44.3300 316.0000 1.0000
44.3400 350.0000 1.0000
44.3500 345.0000 1.0000
44.3600 323.0000 1.0000
44.3700 334.0000 1.0000
44.3800 329.0000 1.0000
44.3900 343.0000 1.0000
44.4000 290.0000 1.0000
44.4100 323.0000 1.0000
44.4200 339.0000 1.0000
44.4300 330.0000 1.0000
44.4400 328.0000 1.0000
44.4500 340.0000 1.0000
44.4600 356.0000 1.0000
44.4700 315.0000 1.0000
44.4800 329.0000 1.0000
44.4900 327.0000 1.0000
44.5000 316.0000 1.0000
44.5100 340.0000 1.0000
44.5200 337.0000 1.0000
44.5300 336.0000 1.0000
44.5400 328.0000 1.0000
44.5500 305.0000 1.0000
44.5600 325.0000 1.0000
44.5700 311.0000 1.0000
44.5800 303.0000 1.0000
44.5900 367.0000 1.0000
44.6000 341.0000 1.0000
44.6100 324.0000 1.0000
44.6200 329.0000 1.0000
44.6300 337.0000 1.0000
44.6400 286.0000 1.0000
44.6500 326.0000 1.0000
44.6600 317.0000 1.0000
44.6700 339.0000 1.0000
44.6800 316.0000 1.0000
44.6900 312.0000 1.0000
44.7000 356.0000 1.0000
44.7100 332.0000 1.0000
44.7200 333.0000 1.0000
44.7300 317.0000 1.0000
44.7400 344.0000 1.0000
44.7500 340.0000 1.0000
44.7600 316.0000 1.0000
44.7700 290.0000 1.0000
44.7800 330.0000 1.0000
44.7900 306.0000 1.0000
44.8000 323.0000 1.0000
44.8100 332.0000 1.0000
44.8200 337.0000 1.0000
44.8300 312.0000 1.0000
44.8400 324.0000 1.0000
44.8500 334.0000 1.0000
44.8600 336.0000 1.0000
44.8700 301.0000 1.0000
44.8800 312.0000 1.0000
44.8900 306.0000 1.0000
44.9000 309.0000 1.0000
44.9100 329.0000 1.0000
44.9200 308.0000 1.0000
44.9300 333.0000 1.0000
44.9400 311.0000 1.0000
44.9500 322.0000 1.0000
44.9600 340.0000 1.0000
44.9700 319.0000 1.0000
44.9800 326.0000 1.0000
44.9900 306.0000 1.0000
45.0000 324.0000 1.0000
45.0100 319.0000 1.0000
45.0200 316.0000 1.0000
45.0300 342.0000 1.0000
45.0400 317.0000 1.0000
45.0500 335.0000 1.0000
45.0600 295.0000 1.0000
45.0700 327.0000 1.0000
45.0800 316.0000 1.0000
45.0900 378.0000 1.0000
45.1000 325.0000 1.0000
45.1100 339.0000 1.0000
45.1200 329.0000 1.0000
45.1300 293.0000 1.0000
45.1400 332.0000 1.0000
45.1500 300.0000 1.0000
45.1600 310.0000 1.0000
45.1700 352.0000 1.0000
45.1800 351.0000 1.0000
45.1900 344.0000 1.0000
45.2000 323.0000 1.0000
45.2100 351.0000 1.0000
45.2200 320.0000 1.0000
45.2300 304.0000 1.0000
45.2400 312.0000 1.0000
45.2500 326.0000 1.0000
45.2600 345.0000 1.0000
45.2700 355.0000 1.0000
45.2800 308.0000 1.0000
45.2900 316.0000 1.0000
45.3000 316.0000 1.0000
45.3100 301.0000 1.0000
45.3200 310.0000 1.0000
45.3300 350.0000 1.0000
45.3400 355.0000 1.0000
45.3500 312.0000 1.0000
45.3600 320.0000 1.0000
45.3700 331.0000 1.0000
45.3800 345.0000 1.0000
45.3900 309.0000 1.0000
45.4000 339.0000 1.0000
45.4100 319.0000 1.0000
45.4200 312.0000 1.0000
45.4300 308.0000 1.0000
45.4400 315.0000 1.0000
45.4500 312.0000 1.0000
45.4600 320.0000 1.0000
45.4700 328.0000 1.0000
45.4800 328.0000 1.0000
45.4900 307.0000 1.0000
45.5000 326.0000 1.0000
45.5100 308.0000 1.0000
45.5200 336.0000 1.0000
45.5300 330.0000 1.0000
45.5400 324.0000 1.0000
45.5500 322.0000 1.0000
45.5600 324.0000 1.0000
45.5700 305.0000 1.0000
45.5800 312.0000 1.0000
45.5900 303.0000 1.0000
45.6000 309.0000 1.0000
45.6100 312.0000 1.0000
45.6200 308.0000 1.0000
45.6300 321.0000 1.0000
45.6400 310.0000 1.0000
45.6500 330.0000 1.0000
45.6600 315.0000 1.0000
45.6700 314.0000 1.0000
45.6800 292.0000 1.0000
45.6900 324.0000 1.0000
45.7000 330.0000 1.0000
45.7100 334.0000 1.0000
45.7200 328.0000 1.0000
45.7300 310.0000 1.0000
45.7400 310.0000 1.0000
45.7500 295.0000 1.0000
45.7600 313.0000 1.0000
45.7700 304.0000 1.0000
45.7800 296.0000 1.0000
45.7900 295.0000 1.0000
45.8000 284.0000 1.0000
45.8100 300.0000 1.0000
45.8200 318.0000 1.0000
45.8300 324.0000 1.0000
45.8400 289.0000 1.0000
45.8500 304.0000 1.0000
45.8600 302.0000 1.0000
45.8700 298.0000 1.0000
45.8800 326.0000 1.0000
45.8900 317.0000 1.0000
45.9000 310.0000 1.0000
45.9100 333.0000 1.0000
45.9200 317.0000 1.0000
45.9300 330.0000 1.0000
45.9400 347.0000 1.0000
45.9500 345.0000 1.0000
45.9600 308.0000 1.0000
45.9700 324.0000 1.0000
45.9800 307.0000 1.0000
45.9900 302.0000 1.0000
46.0000 327.0000 1.0000
46.0100 328.0000 1.0000
46.0200 338.0000 1.0000
46.0300 316.0000 1.0000
46.0400 279.0000 1.0000
46.0500 335.0000 1.0000
46.0600 326.0000 1.0000
46.0700 312.0000 1.0000
46.0800 326.0000 1.0000
46.0900 357.0000 1.0000
46.1000 342.0000 1.0000
46.1100 315.0000 1.0000
46.1200 342.0000 1.0000
46.1300 334.0000 1.0000
46.1400 310.0000 1.0000
46.1500 326.0000 1.0000
46.1600 317.0000 1.0000
46.1700 347.0000 1.0000
46.1800 337.0000 1.0000
46.1900 306.0000 1.0000
46.2000 313.0000 1.0000
46.2100 312.0000 1.0000
46.2200 345.0000 1.0000
46.2300 316.0000 1.0000
46.2400 322.0000 1.0000
46.2500 295.0000 1.0000
46.2600 336.0000 1.0000
46.2700 348.0000 1.0000
46.2800 321.0000 1.0000
46.2900 325.0000 1.0000
46.3000 322.0000 1.0000
46.3100 331.0000 1.0000
46.3200 317.0000 1.0000
46.3300 332.0000 1.0000
46.3400 347.0000 1.0000
46.3500 313.0000 1.0000
46.3600 352.0000 1.0000
46.3700 306.0000 1.0000
46.3800 294.0000 1.0000
46.3900 328.0000 1.0000
46.4000 333.0000 1.0000
46.4100 321.0000 1.0000
46.4200 319.0000 1.0000
46.4300 304.0000 1.0000
46.4400 316.0000 1.0000
46.4500 325.0000 1.0000
46.4600 302.0000 1.0000
46.4700 297.0000 1.0000
46.4800 311.0000 1.0000
46.4900 327.0000 1.0000
46.5000 306.0000 1.0000
46.5100 299.0000 1.0000
46.5200 290.0000 1.0000
46.5300 307.0000 1.0000
46.5400 314.0000 1.0000
46.5500 299.0000 1.0000
46.5600 300.0000 1.0000
46.5700 326.0000 1.0000
46.5800 327.0000 1.0000
46.5900 342.0000 1.0000
46.6000 317.0000 1.0000
46.6100 314.0000 1.0000
46.6200 315.0000 1.0000
46.6300 301.0000 1.0000
46.6400 293.0000 1.0000
46.6500 312.0000 1.0000
46.6600 342.0000 1.0000
46.6700 306.0000 1.0000
46.6800 315.0000 1.0000
46.6900 300.0000 1.0000
46.7000 307.0000 1.0000
46.7100 314.0000 1.0000
46.7200 309.0000 1.0000
46.7300 295.0000 1.0000
46.7400 296.0000 1.0000
46.7500 315.0000 1.0000
46.7600 306.0000 1.0000
46.7700 304.0000 1.0000
46.7800 313.0000 1.0000
46.7900 286.0000 1.0000
46.8000 282.0000 1.0000
46.8100 321.0000 1.0000
46.8200 333.0000 1.0000
46.8300 298.0000 1.0000
46.8400 307.0000 1.0000
46.8500 307.0000 1.0000
46.8600 289.0000 1.0000
46.8700 334.0000 1.0000
46.8800 315.0000 1.0000
46.8900 290.0000 1.0000
46.9000 309.0000 1.0000
46.9100 307.0000 1.0000
46.9200 298.0000 1.0000
46.9300 319.0000 1.0000
46.9400 289.0000 1.0000
46.9500 325.0000 1.0000
46.9600 309.0000 1.0000
46.9700 282.0000 1.0000
46.9800 304.0000 1.0000
46.9900 296.0000 1.0000
47.0000 314.0000 1.0000
47.0100 324.0000 1.0000
47.0200 307.0000 1.0000
47.0300 302.0000 1.0000
47.0400 304.0000 1.0000
47.0500 288.0000 1.0000
47.0600 293.0000 1.0000
47.0700 304.0000 1.0000
47.0800 312.0000 1.0000
47.0900 288.0000 1.0000
47.1000 319.0000 1.0000
47.1100 294.0000 1.0000
47.1200 292.0000 1.0000
47.1300 321.0000 1.0000
47.1400 315.0000 1.0000
47.1500 308.0000 1.0000
47.1600 305.0000 1.0000
47.1700 317.0000 1.0000
47.1800 295.0000 1.0000
47.1900 303.0000 1.0000
47.2000 280.0000 1.0000
47.2100 293.0000 1.0000
47.2200 305.0000 1.0000
47.2300 301.0000 1.0000
47.2400 324.0000 1.0000
47.2500 303.0000 1.0000
47.2600 337.0000 1.0000
47.2700 310.0000 1.0000
47.2800 288.0000 1.0000
47.2900 284.0000 1.0000
47.3000 287.0000 1.0000
47.3100 325.0000 1.0000
47.3200 327.0000 1.0000
47.3300 295.0000 1.0000
47.3400 279.0000 1.0000
47.3500 327.0000 1.0000
47.3600 309.0000 1.0000
47.3700 313.0000 1.0000
47.3800 296.0000 1.0000
47.3900 310.0000 1.0000
47.4000 301.0000 1.0000
47.4100 274.0000 1.0000
47.4200 290.0000 1.0000
47.4300 285.0000 1.0000
47.4400 298.0000 1.0000
47.4500 306.0000 1.0000
47.4600 299.0000 1.0000
47.4700 281.0000 1.0000
47.4800 274.0000 1.0000
47.4900 295.0000 1.0000
47.5000 322.0000 1.0000
47.5100 307.0000 1.0000
47.5200 305.0000 1.0000
47.5300 311.0000 1.0000
47.5400 294.0000 1.0000
47.5500 283.0000 1.0000
47.5600 257.0000 1.0000
47.5700 311.0000 1.0000
47.5800 295.0000 1.0000
47.5900 289.0000 1.0000
47.6000 302.0000 1.0000
47.6100 290.0000 1.0000
47.6200 298.0000 1.0000
47.6300 307.0000 1.0000
47.6400 317.0000 1.0000
47.6500 311.0000 1.0000
47.6600 303.0000 1.0000
47.6700 294.0000 1.0000
47.6800 293.0000 1.0000
47.6900 287.0000 1.0000
47.7000 278.0000 1.0000
47.7100 316.0000 1.0000
47.7200 327.0000 1.0000
47.7300 279.0000 1.0000
47.7400 336.0000 1.0000
47.7500 325.0000 1.0000
47.7600 302.0000 1.0000
47.7700 316.0000 1.0000
47.7800 324.0000 1.0000
47.7900 264.0000 1.0000
47.8000 265.0000 1.0000
47.8100 292.0000 1.0000
47.8200 298.0000 1.0000
47.8300 314.0000 1.0000
47.8400 292.0000 1.0000
47.8500 307.0000 1.0000
47.8600 320.0000 1.0000
47.8700 305.0000 1.0000
47.8800 301.0000 1.0000
47.8900 288.0000 1.0000
47.9000 274.0000 1.0000
47.9100 292.0000 1.0000
47.9200 303.0000 1.0000
47.9300 284.0000 1.0000
47.9400 270.0000 1.0000
47.9500 309.0000 1.0000
47.9600 288.0000 1.0000
47.9700 305.0000 1.0000
47.9800 291.0000 1.0000
47.9900 303.0000 1.0000
48.0000 281.0000 1.0000
48.0100 295.0000 1.0000
48.0200 278.0000 1.0000
48.0300 290.0000 1.0000
48.0400 271.0000 1.0000
48.0500 308.0000 1.0000
48.0600 297.0000 1.0000
48.0700 302.0000 1.0000
48.0800 320.0000 1.0000
48.0900 281.0000 1.0000
48.1000 296.0000 1.0000
48.1100 297.0000 1.0000
48.1200 308.0000 1.0000
48.1300 314.0000 1.0000
48.1400 312.0000 1.0000
48.1500 281.0000 1.0000
48.1600 276.0000 1.0000
48.1700 296.0000 1.0000
48.1800 278.0000 1.0000
48.1900 291.0000 1.0000
48.2000 275.0000 1.0000
48.2100 310.0000 1.0000
48.2200 295.0000 1.0000
48.2300 279.0000 1.0000
48.2400 280.0000 1.0000
48.2500 293.0000 1.0000
48.2600 267.0000 1.0000
48.2700 298.0000 1.0000
48.2800 307.0000 1.0000
48.2900 304.0000 1.0000
48.3000 295.0000 1.0000
48.3100 288.0000 1.0000
48.3200 309.0000 1.0000
48.3300 284.0000 1.0000
48.3400 302.0000 1.0000
48.3500 280.0000 1.0000
48.3600 288.0000 1.0000
48.3700 306.0000 1.0000
48.3800 279.0000 1.0000
48.3900 303.0000 1.0000
48.4000 292.0000 1.0000
48.4100 291.0000 1.0000
48.4200 286.0000 1.0000
48.4300 293.0000 1.0000
48.4400 314.0000 1.0000
48.4500 321.0000 1.0000
48.4600 275.0000 1.0000
48.4700 276.0000 1.0000
48.4800 281.0000 1.0000
48.4900 312.0000 1.0000
48.5000 297.0000 1.0000
48.5100 298.0000 1.0000
48.5200 291.0000 1.0000
48.5300 306.0000 1.0000
48.5400 284.0000 1.0000
48.5500 310.0000 1.0000
48.5600 302.0000 1.0000
48.5700 268.0000 1.0000
48.5800 300.0000 1.0000
48.5900 298.0000 1.0000
48.6000 305.0000 1.0000
48.6100 281.0000 1.0000
48.6200 277.0000 1.0000
48.6300 318.0000 1.0000
48.6400 306.0000 1.0000
48.6500 302.0000 1.0000
48.6600 307.0000 1.0000
48.6700 312.0000 1.0000
48.6800 292.0000 1.0000
48.6900 280.0000 1.0000
48.7000 310.0000 1.0000
48.7100 303.0000 1.0000
48.7200 291.0000 1.0000
48.7300 288.0000 1.0000
48.7400 289.0000 1.0000
48.7500 296.0000 1.0000
48.7600 322.0000 1.0000
48.7700 286.0000 1.0000
48.7800 308.0000 1.0000
48.7900 308.0000 1.0000
48.8000 303.0000 1.0000
48.8100 292.0000 1.0000
48.8200 282.0000 1.0000
48.8300 318.0000 1.0000
48.8400 291.0000 1.0000
48.8500 291.0000 1.0000
48.8600 325.0000 1.0000
48.8700 321.0000 1.0000
48.8800 301.0000 1.0000
48.8900 286.0000 1.0000
48.9000 295.0000 1.0000
48.9100 281.0000 1.0000
48.9200 323.0000 1.0000
48.9300 307.0000 1.0000
48.9400 262.0000 1.0000
48.9500 302.0000 1.0000
48.9600 323.0000 1.0000
48.9700 294.0000 1.0000
48.9800 317.0000 1.0000
48.9900 315.0000 1.0000
49.0000 285.0000 1.0000
49.0100 298.0000 1.0000
49.0200 294.0000 1.0000
49.0300 295.0000 1.0000
49.0400 274.0000 1.0000
49.0500 293.0000 1.0000
49.0600 265.0000 1.0000
49.0700 323.0000 1.0000
49.0800 288.0000 1.0000
49.0900 276.0000 1.0000
49.1000 295.0000 1.0000
49.1100 307.0000 1.0000
49.1200 290.0000 1.0000
49.1300 291.0000 1.0000
49.1400 300.0000 1.0000
49.1500 297.0000 1.0000
49.1600 292.0000 1.0000
49.1700 310.0000 1.0000
49.1800 297.0000 1.0000
49.1900 309.0000 1.0000
49.2000 306.0000 1.0000
49.2100 286.0000 1.0000
49.2200 306.0000 1.0000
49.2300 272.0000 1.0000
49.2400 264.0000 1.0000
49.2500 284.0000 1.0000
49.2600 292.0000 1.0000
49.2700 284.0000 1.0000
49.2800 306.0000 1.0000
49.2900 300.0000 1.0000
49.3000 305.0000 1.0000
49.3100 302.0000 1.0000
49.3200 320.0000 1.0000
49.3300 329.0000 1.0000
49.3400 322.0000 1.0000
49.3500 309.0000 1.0000
49.3600 312.0000 1.0000
49.3700 314.0000 1.0000
49.3800 310.0000 1.0000
49.3900 345.0000 1.0000
49.4000 313.0000 1.0000
49.4100 309.0000 1.0000
49.4200 308.0000 1.0000
49.4300 310.0000 1.0000
49.4400 303.0000 1.0000
49.4500 333.0000 1.0000
49.4600 319.0000 1.0000
49.4700 325.0000 1.0000
49.4800 285.0000 1.0000
49.4900 322.0000 1.0000
49.5000 328.0000 1.0000
49.5100 322.0000 1.0000
49.5200 346.0000 1.0000
49.5300 288.0000 1.0000
49.5400 292.0000 1.0000
49.5500 321.0000 1.0000
49.5600 307.0000 1.0000
49.5700 337.0000 1.0000
49.5800 297.0000 1.0000
49.5900 332.0000 1.0000
49.6000 331.0000 1.0000
49.6100 303.0000 1.0000
49.6200 323.0000 1.0000
49.6300 333.0000 1.0000
49.6400 325.0000 1.0000
49.6500 311.0000 1.0000
49.6600 295.0000 1.0000
49.6700 325.0000 1.0000
49.6800 294.0000 1.0000
49.6900 310.0000 1.0000
49.7000 284.0000 1.0000
49.7100 299.0000 1.0000
49.7200 306.0000 1.0000
49.7300 315.0000 1.0000
49.7400 308.0000 1.0000
49.7500 266.0000 1.0000
49.7600 306.0000 1.0000
49.7700 291.0000 1.0000
49.7800 289.0000 1.0000
49.7900 293.0000 1.0000
49.8000 300.0000 1.0000
49.8100 314.0000 1.0000
49.8200 287.0000 1.0000
49.8300 301.0000 1.0000
49.8400 311.0000 1.0000
49.8500 328.0000 1.0000
49.8600 294.0000 1.0000
49.8700 290.0000 1.0000
49.8800 300.0000 1.0000
49.8900 284.0000 1.0000
49.9000 310.0000 1.0000
49.9100 290.0000 1.0000
49.9200 319.0000 1.0000
49.9300 322.0000 1.0000
49.9400 286.0000 1.0000
49.9500 289.0000 1.0000
49.9600 319.0000 1.0000
49.9700 300.0000 1.0000
49.9800 297.0000 1.0000
49.9900 306.0000 1.0000
50.0000 300.0000 1.0000
50.0100 292.0000 1.0000
50.0200 293.0000 1.0000
50.0300 292.0000 1.0000
50.0400 275.0000 1.0000
50.0500 295.0000 1.0000
50.0600 306.0000 1.0000
50.0700 304.0000 1.0000
50.0800 312.0000 1.0000
50.0900 310.0000 1.0000
50.1000 296.0000 1.0000
50.1100 319.0000 1.0000
50.1200 292.0000 1.0000
50.1300 271.0000 1.0000
50.1400 329.0000 1.0000
50.1500 307.0000 1.0000
50.1600 301.0000 1.0000
50.1700 284.0000 1.0000
50.1800 298.0000 1.0000
50.1900 300.0000 1.0000
50.2000 279.0000 1.0000
50.2100 298.0000 1.0000
50.2200 306.0000 1.0000
50.2300 309.0000 1.0000
50.2400 308.0000 1.0000
50.2500 304.0000 1.0000
50.2600 301.0000 1.0000
50.2700 311.0000 1.0000
50.2800 299.0000 1.0000
50.2900 297.0000 1.0000
50.3000 306.0000 1.0000
50.3100 282.0000 1.0000
50.3200 300.0000 1.0000
50.3300 297.0000 1.0000
50.3400 289.0000 1.0000
50.3500 289.0000 1.0000
50.3600 292.0000 1.0000
50.3700 293.0000 1.0000
50.3800 302.0000 1.0000
50.3900 309.0000 1.0000
50.4000 306.0000 1.0000
50.4100 304.0000 1.0000
50.4200 289.0000 1.0000
50.4300 287.0000 1.0000
50.4400 288.0000 1.0000
50.4500 309.0000 1.0000
50.4600 312.0000 1.0000
50.4700 313.0000 1.0000
50.4800 264.0000 1.0000
50.4900 295.0000 1.0000
50.5000 317.0000 1.0000
50.5100 314.0000 1.0000
50.5200 286.0000 1.0000
50.5300 301.0000 1.0000
50.5400 302.0000 1.0000
50.5500 314.0000 1.0000
50.5600 304.0000 1.0000
50.5700 298.0000 1.0000
50.5800 295.0000 1.0000
50.5900 309.0000 1.0000
50.6000 307.0000 1.0000
50.6100 315.0000 1.0000
50.6200 331.0000 1.0000
50.6300 313.0000 1.0000
50.6400 306.0000 1.0000
50.6500 313.0000 1.0000
50.6600 304.0000 1.0000
50.6700 310.0000 1.0000
50.6800 338.0000 1.0000
50.6900 314.0000 1.0000
50.7000 307.0000 1.0000
50.7100 313.0000 1.0000
50.7200 282.0000 1.0000
50.7300 322.0000 1.0000
50.7400 311.0000 1.0000
50.7500 296.0000 1.0000
50.7600 295.0000 1.0000
50.7700 297.0000 1.0000
50.7800 287.0000 1.0000
50.7900 311.0000 1.0000
50.8000 309.0000 1.0000
50.8100 323.0000 1.0000
50.8200 300.0000 1.0000
50.8300 300.0000 1.0000
50.8400 286.0000 1.0000
50.8500 307.0000 1.0000
50.8600 316.0000 1.0000
50.8700 329.0000 1.0000
50.8800 299.0000 1.0000
50.8900 301.0000 1.0000
50.9000 285.0000 1.0000
50.9100 279.0000 1.0000
50.9200 299.0000 1.0000
50.9300 326.0000 1.0000
50.9400 327.0000 1.0000
50.9500 331.0000 1.0000
50.9600 315.0000 1.0000
50.9700 334.0000 1.0000
50.9800 322.0000 1.0000
50.9900 331.0000 1.0000
51.0000 325.0000 1.0000
51.0100 324.0000 1.0000
51.0200 344.0000 1.0000
51.0300 350.0000 1.0000
51.0400 324.0000 1.0000
51.0500 336.0000 1.0000
51.0600 349.0000 1.0000
51.0700 349.0000 1.0000
51.0800 344.0000 1.0000
51.0900 407.0000 1.0000
51.1000 389.0000 1.0000
51.1100 397.0000 1.0000
51.1200 361.0000 1.0000
51.1300 374.0000 1.0000
51.1400 391.0000 1.0000
51.1500 366.0000 1.0000
51.1600 413.0000 1.0000
51.1700 413.0000 1.0000
51.1800 424.0000 1.0000
51.1900 464.0000 1.0000
51.2000 461.0000 1.0000
51.2100 417.0000 1.0000
51.2200 485.0000 1.0000
51.2300 503.0000 1.0000
51.2400 491.0000 1.0000
51.2500 513.0000 1.0000
51.2600 539.0000 1.0000
51.2700 533.0000 1.0000
51.2800 593.0000 1.0000
51.2900 663.0000 1.0000
51.3000 683.0000 1.0000
51.3100 697.0000 1.0000
51.3200 766.0000 1.0000
51.3300 820.0000 1.0000
51.3400 860.0000 1.0000
51.3500 899.0000 1.0000
51.3600 980.0000 1.0000
51.3700 1093.0000 1.0000
51.3800 1212.0000 1.0000
51.3900 1287.0000 1.0000
51.4000 1415.0000 1.0000
51.4100 1476.0000 1.0000
51.4200 1599.0000 1.0000
51.4300 1688.0000 1.0000
51.4400 1709.0000 1.0000
51.4500 1782.0000 1.0000
51.4600 1809.0000 1.0000
51.4700 1817.0000 1.0000
51.4800 1827.0000 1.0000
51.4900 1886.0000 1.0000
51.5000 1863.0000 1.0000
51.5100 1941.0000 1.0000
51.5200 1904.0000 1.0000
51.5300 1818.0000 1.0000
51.5400 1743.0000 1.0000
51.5500 1759.0000 1.0000
51.5600 1706.0000 1.0000
51.5700 1683.0000 1.0000
51.5800 1604.0000 1.0000
51.5900 1546.0000 1.0000
51.6000 1556.0000 1.0000
51.6100 1487.0000 1.0000
51.6200 1429.0000 1.0000
51.6300 1410.0000 1.0000
51.6400 1329.0000 1.0000
51.6500 1180.0000 1.0000
51.6600 1141.0000 1.0000
51.6700 1142.0000 1.0000
51.6800 1006.0000 1.0000
51.6900 946.0000 1.0000
51.7000 897.0000 1.0000
51.7100 863.0000 1.0000
51.7200 870.0000 1.0000
51.7300 806.0000 1.0000
51.7400 744.0000 1.0000
51.7500 700.0000 1.0000
51.7600 634.0000 1.0000
51.7700 582.0000 1.0000
51.7800 588.0000 1.0000
51.7900 526.0000 1.0000
51.8000 553.0000 1.0000
51.8100 523.0000 1.0000
51.8200 496.0000 1.0000
51.8300 478.0000 1.0000
51.8400 471.0000 1.0000
51.8500 442.0000 1.0000
51.8600 445.0000 1.0000
51.8700 393.0000 1.0000
51.8800 428.0000 1.0000
51.8900 383.0000 1.0000
51.9000 386.0000 1.0000
51.9100 400.0000 1.0000
51.9200 378.0000 1.0000
51.9300 341.0000 1.0000
51.9400 386.0000 1.0000
51.9500 378.0000 1.0000
51.9600 356.0000 1.0000
51.9700 380.0000 1.0000
51.9800 358.0000 1.0000
51.9900 338.0000 1.0000
52.0000 354.0000 1.0000
52.0100 344.0000 1.0000
52.0200 347.0000 1.0000
52.0300 329.0000 1.0000
52.0400 360.0000 1.0000
52.0500 350.0000 1.0000
52.0600 336.0000 1.0000
52.0700 320.0000 1.0000
52.0800 328.0000 1.0000
52.0900 342.0000 1.0000
52.1000 333.0000 1.0000
52.1100 341.0000 1.0000
52.1200 318.0000 1.0000
52.1300 345.0000 1.0000
52.1400 325.0000 1.0000
52.1500 302.0000 1.0000
52.1600 305.0000 1.0000
52.1700 335.0000 1.0000
52.1800 314.0000 1.0000
52.1900 318.0000 1.0000
52.2000 320.0000 1.0000
52.2100 290.0000 1.0000
52.2200 348.0000 1.0000
52.2300 316.0000 1.0000
52.2400 308.0000 1.0000
52.2500 305.0000 1.0000
52.2600 319.0000 1.0000
52.2700 306.0000 1.0000
52.2800 308.0000 1.0000
52.2900 306.0000 1.0000
52.3000 330.0000 1.0000
52.3100 339.0000 1.0000
52.3200 298.0000 1.0000
52.3300 273.0000 1.0000
52.3400 321.0000 1.0000
52.3500 299.0000 1.0000
52.3600 282.0000 1.0000
52.3700 307.0000 1.0000
52.3800 285.0000 1.0000
52.3900 288.0000 1.0000
52.4000 310.0000 1.0000
52.4100 297.0000 1.0000
52.4200 299.0000 1.0000
52.4300 280.0000 1.0000
52.4400 288.0000 1.0000
52.4500 299.0000 1.0000
52.4600 258.0000 1.0000
52.4700 305.0000 1.0000
52.4800 290.0000 1.0000
52.4900 295.0000 1.0000
52.5000 286.0000 1.0000
52.5100 289.0000 1.0000
52.5200 283.0000 1.0000
52.5300 289.0000 1.0000
52.5400 304.0000 1.0000
52.5500 283.0000 1.0000
52.5600 286.0000 1.0000
52.5700 287.0000 1.0000
52.5800 293.0000 1.0000
52.5900 282.0000 1.0000
52.6000 287.0000 1.0000
52.6100 287.0000 1.0000
52.6200 281.0000 1.0000
52.6300 302.0000 1.0000
52.6400 306.0000 1.0000
52.6500 298.0000 1.0000
52.6600 303.0000 1.0000
52.6700 322.0000 1.0000
52.6800 298.0000 1.0000
52.6900 297.0000 1.0000
52.7000 290.0000 1.0000
52.7100 285.0000 1.0000
52.7200 264.0000 1.0000
52.7300 263.0000 1.0000
52.7400 293.0000 1.0000
52.7500 298.0000 1.0000
52.7600 295.0000 1.0000
52.7700 280.0000 1.0000
52.7800 291.0000 1.0000
52.7900 280.0000 1.0000
52.8000 283.0000 1.0000
52.8100 289.0000 1.0000
52.8200 262.0000 1.0000
52.8300 266.0000 1.0000
52.8400 290.0000 1.0000
52.8500 303.0000 1.0000
52.8600 271.0000 1.0000
52.8700 287.0000 1.0000
52.8800 273.0000 1.0000
52.8900 281.0000 1.0000
52.9000 276.0000 1.0000
52.9100 287.0000 1.0000
52.9200 268.0000 1.0000
52.9300 275.0000 1.0000
52.9400 299.0000 1.0000
52.9500 300.0000 1.0000
52.9600 273.0000 1.0000
52.9700 277.0000 1.0000
52.9800 268.0000 1.0000
52.9900 282.0000 1.0000
53.0000 290.0000 1.0000
53.0100 278.0000 1.0000
53.0200 257.0000 1.0000
53.0300 284.0000 1.0000
53.0400 285.0000 1.0000
53.0500 301.0000 1.0000
53.0600 318.0000 1.0000
53.0700 279.0000 1.0000
53.0800 295.0000 1.0000
53.0900 300.0000 1.0000
53.1000 282.0000 1.0000
53.1100 300.0000 1.0000
53.1200 282.0000 1.0000
53.1300 287.0000 1.0000
53.1400 296.0000 1.0000
53.1500 292.0000 1.0000
53.1600 284.0000 1.0000
53.1700 295.0000 1.0000
53.1800 277.0000 1.0000
53.1900 296.0000 1.0000
53.2000 298.0000 1.0000
53.2100 278.0000 1.0000
53.2200 264.0000 1.0000
53.2300 266.0000 1.0000
53.2400 278.0000 1.0000
53.2500 260.0000 1.0000
53.2600 286.0000 1.0000
53.2700 290.0000 1.0000
53.2800 288.0000 1.0000
53.2900 268.0000 1.0000
53.3000 272.0000 1.0000
53.3100 277.0000 1.0000
53.3200 271.0000 1.0000
53.3300 296.0000 1.0000
53.3400 305.0000 1.0000
53.3500 284.0000 1.0000
53.3600 299.0000 1.0000
53.3700 292.0000 1.0000
53.3800 296.0000 1.0000
53.3900 284.0000 1.0000
53.4000 278.0000 1.0000
53.4100 253.0000 1.0000
53.4200 274.0000 1.0000
53.4300 275.0000 1.0000
53.4400 297.0000 1.0000
53.4500 284.0000 1.0000
53.4600 282.0000 1.0000
53.4700 288.0000 1.0000
53.4800 305.0000 1.0000
53.4900 315.0000 1.0000
53.5000 297.0000 1.0000
53.5100 271.0000 1.0000
53.5200 287.0000 1.0000
53.5300 292.0000 1.0000
53.5400 283.0000 1.0000
53.5500 304.0000 1.0000
53.5600 290.0000 1.0000
53.5700 289.0000 1.0000
53.5800 277.0000 1.0000
53.5900 280.0000 1.0000
53.6000 295.0000 1.0000
53.6100 284.0000 1.0000
53.6200 268.0000 1.0000
53.6300 289.0000 1.0000
53.6400 295.0000 1.0000
53.6500 332.0000 1.0000
53.6600 296.0000 1.0000
53.6700 299.0000 1.0000
53.6800 292.0000 1.0000
53.6900 314.0000 1.0000
53.7000 242.0000 1.0000
53.7100 270.0000 1.0000
53.7200 272.0000 1.0000
53.7300 328.0000 1.0000
53.7400 323.0000 1.0000
53.7500 300.0000 1.0000
53.7600 269.0000 1.0000
53.7700 265.0000 1.0000
53.7800 285.0000 1.0000
53.7900 288.0000 1.0000
53.8000 306.0000 1.0000
53.8100 299.0000 1.0000
53.8200 280.0000 1.0000
53.8300 281.0000 1.0000
53.8400 302.0000 1.0000
53.8500 303.0000 1.0000
53.8600 304.0000 1.0000
53.8700 294.0000 1.0000
53.8800 279.0000 1.0000
53.8900 318.0000 1.0000
53.9000 302.0000 1.0000
53.9100 288.0000 1.0000
53.9200 325.0000 1.0000
53.9300 303.0000 1.0000
53.9400 279.0000 1.0000
53.9500 322.0000 1.0000
53.9600 318.0000 1.0000
53.9700 311.0000 1.0000
53.9800 324.0000 1.0000
53.9900 290.0000 1.0000
54.0000 309.0000 1.0000
54.0100 329.0000 1.0000
54.0200 332.0000 1.0000
54.0300 334.0000 1.0000
54.0400 315.0000 1.0000
54.0500 308.0000 1.0000
54.0600 325.0000 1.0000
54.0700 310.0000 1.0000
54.0800 307.0000 1.0000
54.0900 290.0000 1.0000
54.1000 318.0000 1.0000
54.1100 297.0000 1.0000
54.1200 320.0000 1.0000
54.1300 324.0000 1.0000
54.1400 342.0000 1.0000
54.1500 305.0000 1.0000
54.1600 296.0000 1.0000
54.1700 321.0000 1.0000
54.1800 286.0000 1.0000
54.1900 326.0000 1.0000
54.2000 328.0000 1.0000
54.2100 312.0000 1.0000
54.2200 309.0000 1.0000
54.2300 348.0000 1.0000
54.2400 332.0000 1.0000
54.2500 340.0000 1.0000
54.2600 313.0000 1.0000
54.2700 330.0000 1.0000
54.2800 323.0000 1.0000
54.2900 313.0000 1.0000
54.3000 312.0000 1.0000
54.3100 309.0000 1.0000
54.3200 298.0000 1.0000
54.3300 354.0000 1.0000
54.3400 317.0000 1.0000
54.3500 357.0000 1.0000
54.3600 341.0000 1.0000
54.3700 347.0000 1.0000
54.3800 343.0000 1.0000
54.3900 357.0000 1.0000
54.4000 363.0000 1.0000
54.4100 382.0000 1.0000
54.4200 360.0000 1.0000
54.4300 386.0000 1.0000
54.4400 399.0000 1.0000
54.4500 402.0000 1.0000
54.4600 407.0000 1.0000
54.4700 440.0000 1.0000
54.4800 433.0000 1.0000
54.4900 385.0000 1.0000
54.5000 435.0000 1.0000
54.5100 438.0000 1.0000
54.5200 436.0000 1.0000
54.5300 431.0000 1.0000
54.5400 415.0000 1.0000
54.5500 416.0000 1.0000
54.5600 402.0000 1.0000
54.5700 411.0000 1.0000
54.5800 397.0000 1.0000
54.5900 421.0000 1.0000
54.6000 437.0000 1.0000
54.6100 398.0000 1.0000
54.6200 388.0000 1.0000
54.6300 395.0000 1.0000
54.6400 406.0000 1.0000
54.6500 394.0000 1.0000
54.6600 424.0000 1.0000
54.6700 399.0000 1.0000
54.6800 376.0000 1.0000
54.6900 371.0000 1.0000
54.7000 395.0000 1.0000
54.7100 364.0000 1.0000
54.7200 332.0000 1.0000
54.7300 379.0000 1.0000
54.7400 360.0000 1.0000
54.7500 334.0000 1.0000
54.7600 319.0000 1.0000
54.7700 354.0000 1.0000
54.7800 350.0000 1.0000
54.7900 331.0000 1.0000
54.8000 321.0000 1.0000
54.8100 336.0000 1.0000
54.8200 341.0000 1.0000
54.8300 316.0000 1.0000
54.8400 312.0000 1.0000
54.8500 346.0000 1.0000
54.8600 317.0000 1.0000
54.8700 317.0000 1.0000
54.8800 304.0000 1.0000
54.8900 305.0000 1.0000
54.9000 287.0000 1.0000
54.9100 287.0000 1.0000
54.9200 301.0000 1.0000
54.9300 286.0000 1.0000
54.9400 308.0000 1.0000
54.9500 317.0000 1.0000
54.9600 280.0000 1.0000
54.9700 293.0000 1.0000
54.9800 298.0000 1.0000
54.9900 274.0000 1.0000
55.0000 289.0000 1.0000
55.0100 299.0000 1.0000
55.0200 289.0000 1.0000
55.0300 294.0000 1.0000
55.0400 265.0000 1.0000
55.0500 273.0000 1.0000
55.0600 273.0000 1.0000
55.0700 285.0000 1.0000
55.0800 281.0000 1.0000
55.0900 271.0000 1.0000
55.1000 249.0000 1.0000
55.1100 288.0000 1.0000
55.1200 283.0000 1.0000
55.1300 291.0000 1.0000
55.1400 293.0000 1.0000
55.1500 287.0000 1.0000
55.1600 267.0000 1.0000
55.1700 277.0000 1.0000
55.1800 292.0000 1.0000
55.1900 283.0000 1.0000
55.2000 290.0000 1.0000
55.2100 305.0000 1.0000
55.2200 281.0000 1.0000
55.2300 292.0000 1.0000
55.2400 297.0000 1.0000
55.2500 290.0000 1.0000
55.2600 297.0000 1.0000
55.2700 280.0000 1.0000
55.2800 274.0000 1.0000
55.2900 275.0000 1.0000
55.3000 251.0000 1.0000
55.3100 282.0000 1.0000
55.3200 255.0000 1.0000
55.3300 284.0000 1.0000
55.3400 260.0000 1.0000
55.3500 268.0000 1.0000
55.3600 282.0000 1.0000
55.3700 256.0000 1.0000
55.3800 262.0000 1.0000
55.3900 290.0000 1.0000
55.4000 265.0000 1.0000
55.4100 272.0000 1.0000
55.4200 256.0000 1.0000
55.4300 260.0000 1.0000
55.4400 276.0000 1.0000
55.4500 295.0000 1.0000
55.4600 249.0000 1.0000
55.4700 286.0000 1.0000
55.4800 277.0000 1.0000
55.4900 264.0000 1.0000
55.5000 246.0000 1.0000
55.5100 268.0000 1.0000
55.5200 272.0000 1.0000
55.5300 264.0000 1.0000
55.5400 279.0000 1.0000
55.5500 277.0000 1.0000
55.5600 278.0000 1.0000
55.5700 308.0000 1.0000
55.5800 281.0000 1.0000
55.5900 268.0000 1.0000
55.6000 292.0000 1.0000
55.6100 287.0000 1.0000
55.6200 240.0000 1.0000
55.6300 235.0000 1.0000
55.6400 246.0000 1.0000
55.6500 260.0000 1.0000
55.6600 271.0000 1.0000
55.6700 260.0000 1.0000
55.6800 274.0000 1.0000
55.6900 265.0000 1.0000
55.7000 253.0000 1.0000
55.7100 278.0000 1.0000
55.7200 261.0000 1.0000
55.7300 268.0000 1.0000
55.7400 273.0000 1.0000
55.7500 281.0000 1.0000
55.7600 258.0000 1.0000
55.7700 281.0000 1.0000
55.7800 284.0000 1.0000
55.7900 282.0000 1.0000
55.8000 234.0000 1.0000
55.8100 260.0000 1.0000
55.8200 277.0000 1.0000
55.8300 293.0000 1.0000
55.8400 286.0000 1.0000
55.8500 287.0000 1.0000
55.8600 276.0000 1.0000
55.8700 274.0000 1.0000
55.8800 232.0000 1.0000
55.8900 244.0000 1.0000
55.9000 270.0000 1.0000
55.9100 277.0000 1.0000
55.9200 256.0000 1.0000
55.9300 312.0000 1.0000
55.9400 273.0000 1.0000
55.9500 259.0000 1.0000
55.9600 280.0000 1.0000
55.9700 273.0000 1.0000
55.9800 250.0000 1.0000
55.9900 288.0000 1.0000
56.0000 273.0000 1.0000
56.0100 264.0000 1.0000
56.0200 247.0000 1.0000
56.0300 279.0000 1.0000
56.0400 255.0000 1.0000
56.0500 285.0000 1.0000
56.0600 282.0000 1.0000
56.0700 291.0000 1.0000
56.0800 266.0000 1.0000
56.0900 253.0000 1.0000
56.1000 289.0000 1.0000
56.1100 251.0000 1.0000
56.1200 285.0000 1.0000
56.1300 293.0000 1.0000
56.1400 271.0000 1.0000
56.1500 271.0000 1.0000
56.1600 258.0000 1.0000
56.1700 252.0000 1.0000
56.1800 269.0000 1.0000
56.1900 261.0000 1.0000
56.2000 256.0000 1.0000
56.2100 271.0000 1.0000
56.2200 293.0000 1.0000
56.2300 287.0000 1.0000
56.2400 274.0000 1.0000
56.2500 254.0000 1.0000
56.2600 262.0000 1.0000
56.2700 280.0000 1.0000
56.2800 273.0000 1.0000
56.2900 284.0000 1.0000
56.3000 283.0000 1.0000
56.3100 255.0000 1.0000
56.3200 268.0000 1.0000
56.3300 265.0000 1.0000
56.3400 270.0000 1.0000
56.3500 281.0000 1.0000
56.3600 257.0000 1.0000
56.3700 279.0000 1.0000
56.3800 267.0000 1.0000
56.3900 252.0000 1.0000
56.4000 263.0000 1.0000
56.4100 286.0000 1.0000
56.4200 282.0000 1.0000
56.4300 290.0000 1.0000
56.4400 301.0000 1.0000
56.4500 270.0000 1.0000
56.4600 280.0000 1.0000
56.4700 276.0000 1.0000
56.4800 278.0000 1.0000
56.4900 266.0000 1.0000
56.5000 278.0000 1.0000
56.5100 277.0000 1.0000
56.5200 270.0000 1.0000
56.5300 260.0000 1.0000
56.5400 289.0000 1.0000
56.5500 252.0000 1.0000
56.5600 249.0000 1.0000
56.5700 257.0000 1.0000
56.5800 248.0000 1.0000
56.5900 277.0000 1.0000
56.6000 266.0000 1.0000
56.6100 281.0000 1.0000
56.6200 296.0000 1.0000
56.6300 278.0000 1.0000
56.6400 249.0000 1.0000
56.6500 248.0000 1.0000
56.6600 267.0000 1.0000
56.6700 268.0000 1.0000
56.6800 268.0000 1.0000
56.6900 254.0000 1.0000
56.7000 275.0000 1.0000
56.7100 263.0000 1.0000
56.7200 268.0000 1.0000
56.7300 279.0000 1.0000
56.7400 270.0000 1.0000
56.7500 263.0000 1.0000
56.7600 251.0000 1.0000
56.7700 277.0000 1.0000
56.7800 258.0000 1.0000
56.7900 266.0000 1.0000
56.8000 245.0000 1.0000
56.8100 289.0000 1.0000
56.8200 305.0000 1.0000
56.8300 278.0000 1.0000
56.8400 284.0000 1.0000
56.8500 277.0000 1.0000
56.8600 284.0000 1.0000
56.8700 270.0000 1.0000
56.8800 271.0000 1.0000
56.8900 272.0000 1.0000
56.9000 258.0000 1.0000
56.9100 252.0000 1.0000
56.9200 285.0000 1.0000
56.9300 279.0000 1.0000
56.9400 273.0000 1.0000
56.9500 270.0000 1.0000
56.9600 267.0000 1.0000
56.9700 250.0000 1.0000
56.9800 266.0000 1.0000
56.9900 273.0000 1.0000
57.0000 266.0000 1.0000
57.0100 285.0000 1.0000
57.0200 258.0000 1.0000
57.0300 249.0000 1.0000
57.0400 256.0000 1.0000
57.0500 278.0000 1.0000
57.0600 297.0000 1.0000
57.0700 259.0000 1.0000
57.0800 279.0000 1.0000
57.0900 284.0000 1.0000
57.1000 267.0000 1.0000
57.1100 277.0000 1.0000
57.1200 272.0000 1.0000
57.1300 285.0000 1.0000
57.1400 260.0000 1.0000
57.1500 277.0000 1.0000
57.1600 290.0000 1.0000
57.1700 274.0000 1.0000
57.1800 267.0000 1.0000
57.1900 257.0000 1.0000
57.2000 252.0000 1.0000
57.2100 277.0000 1.0000
57.2200 265.0000 1.0000
57.2300 270.0000 1.0000
57.2400 267.0000 1.0000
57.2500 251.0000 1.0000
57.2600 280.0000 1.0000
57.2700 253.0000 1.0000
57.2800 277.0000 1.0000
57.2900 274.0000 1.0000
57.3000 277.0000 1.0000
57.3100 238.0000 1.0000
57.3200 275.0000 1.0000
57.3300 280.0000 1.0000
57.3400 273.0000 1.0000
57.3500 271.0000 1.0000
57.3600 258.0000 1.0000
57.3700 307.0000 1.0000
57.3800 280.0000 1.0000
57.3900 286.0000 1.0000
57.4000 266.0000 1.0000
57.4100 257.0000 1.0000
57.4200 296.0000 1.0000
57.4300 285.0000 1.0000
57.4400 280.0000 1.0000
57.4500 265.0000 1.0000
57.4600 260.0000 1.0000
57.4700 273.0000 1.0000
57.4800 265.0000 1.0000
57.4900 274.0000 1.0000
57.5000 275.0000 1.0000
57.5100 274.0000 1.0000
57.5200 286.0000 1.0000
57.5300 271.0000 1.0000
57.5400 275.0000 1.0000
57.5500 251.0000 1.0000
57.5600 274.0000 1.0000
57.5700 298.0000 1.0000
57.5800 293.0000 1.0000
57.5900 283.0000 1.0000
57.6000 290.0000 1.0000
57.6100 262.0000 1.0000
57.6200 257.0000 1.0000
57.6300 276.0000 1.0000
57.6400 276.0000 1.0000
57.6500 280.0000 1.0000
57.6600 245.0000 1.0000
57.6700 260.0000 1.0000
57.6800 254.0000 1.0000
57.6900 289.0000 1.0000
57.7000 273.0000 1.0000
57.7100 254.0000 1.0000
57.7200 257.0000 1.0000
57.7300 266.0000 1.0000
57.7400 269.0000 1.0000
57.7500 249.0000 1.0000
57.7600 265.0000 1.0000
57.7700 287.0000 1.0000
57.7800 264.0000 1.0000
57.7900 277.0000 1.0000
57.8000 279.0000 1.0000
57.8100 279.0000 1.0000
57.8200 256.0000 1.0000
57.8300 262.0000 1.0000
57.8400 272.0000 1.0000
57.8500 269.0000 1.0000
57.8600 254.0000 1.0000
57.8700 254.0000 1.0000
57.8800 262.0000 1.0000
57.8900 271.0000 1.0000
57.9000 265.0000 1.0000
57.9100 267.0000 1.0000
57.9200 306.0000 1.0000
57.9300 260.0000 1.0000
57.9400 261.0000 1.0000
57.9500 283.0000 1.0000
57.9600 261.0000 1.0000
57.9700 251.0000 1.0000
57.9800 287.0000 1.0000
57.9900 292.0000 1.0000
58.0000 252.0000 1.0000
58.0100 240.0000 1.0000
58.0200 273.0000 1.0000
58.0300 264.0000 1.0000
58.0400 264.0000 1.0000
58.0500 256.0000 1.0000
58.0600 253.0000 1.0000
58.0700 263.0000 1.0000
58.0800 259.0000 1.0000
58.0900 245.0000 1.0000
58.1000 252.0000 1.0000
58.1100 271.0000 1.0000
58.1200 259.0000 1.0000
58.1300 250.0000 1.0000
58.1400 290.0000 1.0000
58.1500 288.0000 1.0000
58.1600 262.0000 1.0000
58.1700 246.0000 1.0000
58.1800 241.0000 1.0000
58.1900 250.0000 1.0000
58.2000 249.0000 1.0000
58.2100 270.0000 1.0000
58.2200 271.0000 1.0000
58.2300 294.0000 1.0000
58.2400 286.0000 1.0000
58.2500 266.0000 1.0000
58.2600 246.0000 1.0000
58.2700 258.0000 1.0000
58.2800 282.0000 1.0000
58.2900 266.0000 1.0000
58.3000 258.0000 1.0000
58.3100 272.0000 1.0000
58.3200 284.0000 1.0000
58.3300 252.0000 1.0000
58.3400 276.0000 1.0000
58.3500 254.0000 1.0000
58.3600 281.0000 1.0000
58.3700 279.0000 1.0000
58.3800 268.0000 1.0000
58.3900 273.0000 1.0000
58.4000 263.0000 1.0000
58.4100 278.0000 1.0000
58.4200 250.0000 1.0000
58.4300 282.0000 1.0000
58.4400 277.0000 1.0000
58.4500 277.0000 1.0000
58.4600 257.0000 1.0000
58.4700 288.0000 1.0000
58.4800 264.0000 1.0000
58.4900 301.0000 1.0000
58.5000 265.0000 1.0000
58.5100 257.0000 1.0000
58.5200 268.0000 1.0000
58.5300 254.0000 1.0000
58.5400 282.0000 1.0000
58.5500 276.0000 1.0000
58.5600 320.0000 1.0000
58.5700 258.0000 1.0000
58.5800 257.0000 1.0000
58.5900 268.0000 1.0000
58.6000 260.0000 1.0000
58.6100 263.0000 1.0000
58.6200 283.0000 1.0000
58.6300 262.0000 1.0000
58.6400 273.0000 1.0000
58.6500 242.0000 1.0000
58.6600 257.0000 1.0000
58.6700 270.0000 1.0000
58.6800 269.0000 1.0000
58.6900 284.0000 1.0000
58.7000 269.0000 1.0000
58.7100 266.0000 1.0000
58.7200 254.0000 1.0000
58.7300 246.0000 1.0000
58.7400 281.0000 1.0000
58.7500 260.0000 1.0000
58.7600 245.0000 1.0000
58.7700 245.0000 1.0000
58.7800 266.0000 1.0000
58.7900 259.0000 1.0000
58.8000 259.0000 1.0000
58.8100 274.0000 1.0000
58.8200 246.0000 1.0000
58.8300 267.0000 1.0000
58.8400 287.0000 1.0000
58.8500 270.0000 1.0000
58.8600 293.0000 1.0000
58.8700 280.0000 1.0000
58.8800 258.0000 1.0000
58.8900 246.0000 1.0000
58.9000 277.0000 1.0000
58.9100 267.0000 1.0000
58.9200 266.0000 1.0000
58.9300 279.0000 1.0000
58.9400 274.0000 1.0000
58.9500 257.0000 1.0000
58.9600 270.0000 1.0000
58.9700 246.0000 1.0000
58.9800 272.0000 1.0000
58.9900 257.0000 1.0000
59.0000 263.0000 1.0000
59.0100 267.0000 1.0000
59.0200 300.0000 1.0000
59.0300 264.0000 1.0000
59.0400 244.0000 1.0000
59.0500 253.0000 1.0000
59.0600 242.0000 1.0000
59.0700 259.0000 1.0000
59.0800 263.0000 1.0000
59.0900 274.0000 1.0000
59.1000 256.0000 1.0000
59.1100 252.0000 1.0000
59.1200 268.0000 1.0000
59.1300 260.0000 1.0000
59.1400 273.0000 1.0000
59.1500 282.0000 1.0000
59.1600 259.0000 1.0000
59.1700 275.0000 1.0000
59.1800 222.0000 1.0000
59.1900 258.0000 1.0000
59.2000 267.0000 1.0000
59.2100 263.0000 1.0000
59.2200 248.0000 1.0000
59.2300 265.0000 1.0000
59.2400 289.0000 1.0000
59.2500 247.0000 1.0000
59.2600 261.0000 1.0000
59.2700 264.0000 1.0000
59.2800 271.0000 1.0000
59.2900 272.0000 1.0000
59.3000 272.0000 1.0000
59.3100 250.0000 1.0000
59.3200 251.0000 1.0000
59.3300 267.0000 1.0000
59.3400 285.0000 1.0000
59.3500 280.0000 1.0000
59.3600 284.0000 1.0000
59.3700 296.0000 1.0000
59.3800 269.0000 1.0000
59.3900 275.0000 1.0000
59.4000 233.0000 1.0000
59.4100 249.0000 1.0000
59.4200 243.0000 1.0000
59.4300 281.0000 1.0000
59.4400 257.0000 1.0000
59.4500 270.0000 1.0000
59.4600 265.0000 1.0000
59.4700 272.0000 1.0000
59.4800 273.0000 1.0000
59.4900 267.0000 1.0000
59.5000 286.0000 1.0000
59.5100 260.0000 1.0000
59.5200 243.0000 1.0000
59.5300 253.0000 1.0000
59.5400 289.0000 1.0000
59.5500 263.0000 1.0000
59.5600 288.0000 1.0000
59.5700 256.0000 1.0000
59.5800 249.0000 1.0000
59.5900 253.0000 1.0000
59.6000 274.0000 1.0000
59.6100 259.0000 1.0000
59.6200 241.0000 1.0000
59.6300 256.0000 1.0000
59.6400 242.0000 1.0000
59.6500 261.0000 1.0000
59.6600 263.0000 1.0000
59.6700 270.0000 1.0000
59.6800 258.0000 1.0000
59.6900 261.0000 1.0000
59.7000 264.0000 1.0000
59.7100 285.0000 1.0000
59.7200 268.0000 1.0000
59.7300 238.0000 1.0000
59.7400 287.0000 1.0000
59.7500 268.0000 1.0000
59.7600 269.0000 1.0000
59.7700 250.0000 1.0000
59.7800 285.0000 1.0000
59.7900 273.0000 1.0000
59.8000 294.0000 1.0000
59.8100 298.0000 1.0000
59.8200 286.0000 1.0000
59.8300 254.0000 1.0000
59.8400 254.0000 1.0000
59.8500 271.0000 1.0000
59.8600 256.0000 1.0000
59.8700 259.0000 1.0000
59.8800 290.0000 1.0000
59.8900 260.0000 1.0000
59.9000 256.0000 1.0000
59.9100 253.0000 1.0000
59.9200 293.0000 1.0000
59.9300 290.0000 1.0000
59.9400 279.0000 1.0000
59.9500 260.0000 1.0000
59.9600 246.0000 1.0000
59.9700 271.0000 1.0000
59.9800 271.0000 1.0000
59.9900 267.0000 1.0000
60.0000 247.0000 1.0000
60.0100 276.0000 1.0000
60.0200 252.0000 1.0000
60.0300 271.0000 1.0000
60.0400 267.0000 1.0000
60.0500 257.0000 1.0000
60.0600 275.0000 1.0000
60.0700 269.0000 1.0000
60.0800 296.0000 1.0000
60.0900 289.0000 1.0000
60.1000 275.0000 1.0000
60.1100 263.0000 1.0000
60.1200 294.0000 1.0000
60.1300 261.0000 1.0000
60.1400 245.0000 1.0000
60.1500 254.0000 1.0000
60.1600 276.0000 1.0000
60.1700 282.0000 1.0000
60.1800 295.0000 1.0000
60.1900 293.0000 1.0000
60.2000 290.0000 1.0000
60.2100 292.0000 1.0000
60.2200 269.0000 1.0000
60.2300 252.0000 1.0000
60.2400 268.0000 1.0000
60.2500 258.0000 1.0000
60.2600 258.0000 1.0000
60.2700 259.0000 1.0000
60.2800 248.0000 1.0000
60.2900 265.0000 1.0000
60.3000 249.0000 1.0000
60.3100 267.0000 1.0000
60.3200 282.0000 1.0000
60.3300 271.0000 1.0000
60.3400 263.0000 1.0000
60.3500 236.0000 1.0000
60.3600 286.0000 1.0000
60.3700 261.0000 1.0000
60.3800 236.0000 1.0000
60.3900 246.0000 1.0000
60.4000 261.0000 1.0000
60.4100 255.0000 1.0000
60.4200 279.0000 1.0000
60.4300 261.0000 1.0000
60.4400 270.0000 1.0000
60.4500 278.0000 1.0000
60.4600 253.0000 1.0000
60.4700 261.0000 1.0000
60.4800 278.0000 1.0000
60.4900 286.0000 1.0000
60.5000 256.0000 1.0000
60.5100 271.0000 1.0000
60.5200 259.0000 1.0000
60.5300 279.0000 1.0000
60.5400 256.0000 1.0000
60.5500 283.0000 1.0000
60.5600 246.0000 1.0000
60.5700 283.0000 1.0000
60.5800 295.0000 1.0000
60.5900 294.0000 1.0000
60.6000 251.0000 1.0000
60.6100 281.0000 1.0000
60.6200 284.0000 1.0000
60.6300 278.0000 1.0000
60.6400 273.0000 1.0000
60.6500 279.0000 1.0000
60.6600 276.0000 1.0000
60.6700 266.0000 1.0000
60.6800 273.0000 1.0000
60.6900 276.0000 1.0000
60.7000 268.0000 1.0000
60.7100 272.0000 1.0000
60.7200 258.0000 1.0000
60.7300 285.0000 1.0000
60.7400 291.0000 1.0000
60.7500 245.0000 1.0000
60.7600 234.0000 1.0000
60.7700 256.0000 1.0000
60.7800 253.0000 1.0000
60.7900 277.0000 1.0000
60.8000 271.0000 1.0000
60.8100 287.0000 1.0000
60.8200 261.0000 1.0000
60.8300 240.0000 1.0000
60.8400 285.0000 1.0000
60.8500 258.0000 1.0000
60.8600 263.0000 1.0000
60.8700 252.0000 1.0000
60.8800 265.0000 1.0000
60.8900 272.0000 1.0000
60.9000 271.0000 1.0000
60.9100 316.0000 1.0000
60.9200 271.0000 1.0000
60.9300 268.0000 1.0000
60.9400 256.0000 1.0000
60.9500 277.0000 1.0000
60.9600 283.0000 1.0000
60.9700 260.0000 1.0000
60.9800 265.0000 1.0000
60.9900 276.0000 1.0000
61.0000 271.0000 1.0000
61.0100 285.0000 1.0000
61.0200 281.0000 1.0000
61.0300 290.0000 1.0000
61.0400 276.0000 1.0000
61.0500 286.0000 1.0000
61.0600 280.0000 1.0000
61.0700 311.0000 1.0000
61.0800 287.0000 1.0000
61.0900 309.0000 1.0000
61.1000 287.0000 1.0000
61.1100 284.0000 1.0000
61.1200 288.0000 1.0000
61.1300 288.0000 1.0000
61.1400 288.0000 1.0000
61.1500 302.0000 1.0000
61.1600 307.0000 1.0000
61.1700 289.0000 1.0000
61.1800 299.0000 1.0000
61.1900 305.0000 1.0000
61.2000 328.0000 1.0000
61.2100 303.0000 1.0000
61.2200 322.0000 1.0000
61.2300 329.0000 1.0000
61.2400 325.0000 1.0000
61.2500 340.0000 1.0000
61.2600 353.0000 1.0000
61.2700 339.0000 1.0000
61.2800 347.0000 1.0000
61.2900 350.0000 1.0000
61.3000 349.0000 1.0000
61.3100 367.0000 1.0000
61.3200 371.0000 1.0000
61.3300 438.0000 1.0000
61.3400 405.0000 1.0000
61.3500 415.0000 1.0000
61.3600 390.0000 1.0000
61.3700 432.0000 1.0000
61.3800 417.0000 1.0000
61.3900 436.0000 1.0000
61.4000 451.0000 1.0000
61.4100 443.0000 1.0000
61.4200 475.0000 1.0000
61.4300 480.0000 1.0000
61.4400 556.0000 1.0000
61.4500 516.0000 1.0000
61.4600 520.0000 1.0000
61.4700 527.0000 1.0000
61.4800 511.0000 1.0000
61.4900 545.0000 1.0000
61.5000 539.0000 1.0000
61.5100 535.0000 1.0000
61.5200 532.0000 1.0000
61.5300 541.0000 1.0000
61.5400 566.0000 1.0000
61.5500 542.0000 1.0000
61.5600 539.0000 1.0000
61.5700 557.0000 1.0000
61.5800 523.0000 1.0000
61.5900 507.0000 1.0000
61.6000 517.0000 1.0000
61.6100 542.0000 1.0000
61.6200 550.0000 1.0000
61.6300 513.0000 1.0000
61.6400 549.0000 1.0000
61.6500 522.0000 1.0000
61.6600 501.0000 1.0000
61.6700 522.0000 1.0000
61.6800 528.0000 1.0000
61.6900 475.0000 1.0000
61.7000 438.0000 1.0000
61.7100 466.0000 1.0000
61.7200 488.0000 1.0000
61.7300 446.0000 1.0000
61.7400 492.0000 1.0000
61.7500 430.0000 1.0000
61.7600 450.0000 1.0000
61.7700 455.0000 1.0000
61.7800 416.0000 1.0000
61.7900 410.0000 1.0000
61.8000 418.0000 1.0000
61.8100 400.0000 1.0000
61.8200 416.0000 1.0000
61.8300 398.0000 1.0000
61.8400 393.0000 1.0000
61.8500 408.0000 1.0000
61.8600 347.0000 1.0000
61.8700 351.0000 1.0000
61.8800 387.0000 1.0000
61.8900 357.0000 1.0000
61.9000 381.0000 1.0000
61.9100 356.0000 1.0000
61.9200 357.0000 1.0000
61.9300 352.0000 1.0000
61.9400 347.0000 1.0000
61.9500 362.0000 1.0000
61.9600 323.0000 1.0000
61.9700 328.0000 1.0000
61.9800 331.0000 1.0000
61.9900 323.0000 1.0000
62.0000 315.0000 1.0000
62.0100 296.0000 1.0000
62.0200 306.0000 1.0000
62.0300 314.0000 1.0000
62.0400 308.0000 1.0000
62.0500 295.0000 1.0000
62.0600 270.0000 1.0000
62.0700 291.0000 1.0000
62.0800 308.0000 1.0000
62.0900 311.0000 1.0000
62.1000 296.0000 1.0000
62.1100 282.0000 1.0000
62.1200 318.0000 1.0000
62.1300 308.0000 1.0000
62.1400 278.0000 1.0000
62.1500 279.0000 1.0000
62.1600 280.0000 1.0000
62.1700 259.0000 1.0000
62.1800 282.0000 1.0000
62.1900 288.0000 1.0000
62.2000 279.0000 1.0000
62.2100 282.0000 1.0000
62.2200 296.0000 1.0000
62.2300 289.0000 1.0000
62.2400 302.0000 1.0000
62.2500 296.0000 1.0000
62.2600 283.0000 1.0000
62.2700 260.0000 1.0000
62.2800 266.0000 1.0000
62.2900 255.0000 1.0000
62.3000 319.0000 1.0000
62.3100 303.0000 1.0000
62.3200 293.0000 1.0000
62.3300 283.0000 1.0000
62.3400 296.0000 1.0000
62.3500 292.0000 1.0000
62.3600 315.0000 1.0000
62.3700 291.0000 1.0000
62.3800 306.0000 1.0000
62.3900 279.0000 1.0000
62.4000 324.0000 1.0000
62.4100 292.0000 1.0000
62.4200 288.0000 1.0000
62.4300 265.0000 1.0000
62.4400 304.0000 1.0000
62.4500 288.0000 1.0000
62.4600 289.0000 1.0000
62.4700 265.0000 1.0000
62.4800 272.0000 1.0000
62.4900 271.0000 1.0000
62.5000 311.0000 1.0000
62.5100 281.0000 1.0000
62.5200 292.0000 1.0000
62.5300 307.0000 1.0000
62.5400 293.0000 1.0000
62.5500 297.0000 1.0000
62.5600 302.0000 1.0000
62.5700 276.0000 1.0000
62.5800 266.0000 1.0000
62.5900 283.0000 1.0000
62.6000 268.0000 1.0000
62.6100 257.0000 1.0000
62.6200 253.0000 1.0000
62.6300 255.0000 1.0000
62.6400 283.0000 1.0000
62.6500 298.0000 1.0000
62.6600 286.0000 1.0000
62.6700 290.0000 1.0000
62.6800 284.0000 1.0000
62.6900 274.0000 1.0000
62.7000 281.0000 1.0000
62.7100 254.0000 1.0000
62.7200 308.0000 1.0000
62.7300 242.0000 1.0000
62.7400 272.0000 1.0000
62.7500 289.0000 1.0000
62.7600 250.0000 1.0000
62.7700 272.0000 1.0000
62.7800 259.0000 1.0000
62.7900 277.0000 1.0000
62.8000 266.0000 1.0000
62.8100 269.0000 1.0000
62.8200 278.0000 1.0000
62.8300 270.0000 1.0000
62.8400 278.0000 1.0000
62.8500 251.0000 1.0000
62.8600 243.0000 1.0000
62.8700 294.0000 1.0000
62.8800 249.0000 1.0000
62.8900 277.0000 1.0000
62.9000 261.0000 1.0000
62.9100 259.0000 1.0000
62.9200 248.0000 1.0000
62.9300 239.0000 1.0000
62.9400 258.0000 1.0000
62.9500 256.0000 1.0000
62.9600 252.0000 1.0000
62.9700 242.0000 1.0000
62.9800 271.0000 1.0000
62.9900 278.0000 1.0000
63.0000 262.0000 1.0000
63.0100 244.0000 1.0000
63.0200 251.0000 1.0000
63.0300 264.0000 1.0000
63.0400 263.0000 1.0000
63.0500 276.0000 1.0000
63.0600 266.0000 1.0000
63.0700 264.0000 1.0000
63.0800 295.0000 1.0000
63.0900 257.0000 1.0000
63.1000 270.0000 1.0000
63.1100 249.0000 1.0000
63.1200 264.0000 1.0000
63.1300 258.0000 1.0000
63.1400 257.0000 1.0000
63.1500 274.0000 1.0000
63.1600 261.0000 1.0000
63.1700 281.0000 1.0000
63.1800 277.0000 1.0000
63.1900 279.0000 1.0000
63.2000 278.0000 1.0000
63.2100 293.0000 1.0000
63.2200 299.0000 1.0000
63.2300 265.0000 1.0000
63.2400 244.0000 1.0000
63.2500 228.0000 1.0000
63.2600 257.0000 1.0000
63.2700 261.0000 1.0000
63.2800 239.0000 1.0000
63.2900 254.0000 1.0000
63.3000 249.0000 1.0000
63.3100 273.0000 1.0000
63.3200 276.0000 1.0000
63.3300 261.0000 1.0000
63.3400 249.0000 1.0000
63.3500 266.0000 1.0000
63.3600 264.0000 1.0000
63.3700 273.0000 1.0000
63.3800 283.0000 1.0000
63.3900 261.0000 1.0000
63.4000 274.0000 1.0000
63.4100 274.0000 1.0000
63.4200 277.0000 1.0000
63.4300 260.0000 1.0000
63.4400 273.0000 1.0000
63.4500 273.0000 1.0000
63.4600 292.0000 1.0000
63.4700 284.0000 1.0000
63.4800 256.0000 1.0000
63.4900 271.0000 1.0000
63.5000 285.0000 1.0000
63.5100 268.0000 1.0000
63.5200 273.0000 1.0000
63.5300 290.0000 1.0000
63.5400 264.0000 1.0000
63.5500 271.0000 1.0000
63.5600 265.0000 1.0000
63.5700 282.0000 1.0000
63.5800 250.0000 1.0000
63.5900 283.0000 1.0000
63.6000 277.0000 1.0000
63.6100 275.0000 1.0000
63.6200 264.0000 1.0000
63.6300 282.0000 1.0000
63.6400 287.0000 1.0000
63.6500 281.0000 1.0000
63.6600 251.0000 1.0000
63.6700 296.0000 1.0000
63.6800 279.0000 1.0000
63.6900 284.0000 1.0000
63.7000 299.0000 1.0000
63.7100 286.0000 1.0000
63.7200 293.0000 1.0000
63.7300 300.0000 1.0000
63.7400 324.0000 1.0000
63.7500 309.0000 1.0000
63.7600 311.0000 1.0000
63.7700 309.0000 1.0000
63.7800 353.0000 1.0000
63.7900 319.0000 1.0000
63.8000 327.0000 1.0000
63.8100 325.0000 1.0000
63.8200 344.0000 1.0000
63.8300 367.0000 1.0000
63.8400 353.0000 1.0000
63.8500 351.0000 1.0000
63.8600 347.0000 1.0000
63.8700 359.0000 1.0000
63.8800 382.0000 1.0000
63.8900 369.0000 1.0000
63.9000 356.0000 1.0000
63.9100 384.0000 1.0000
63.9200 388.0000 1.0000
63.9300 356.0000 1.0000
63.9400 404.0000 1.0000
63.9500 360.0000 1.0000
63.9600 361.0000 1.0000
63.9700 401.0000 1.0000
63.9800 391.0000 1.0000
63.9900 400.0000 1.0000
64.0000 398.0000 1.0000
64.0100 370.0000 1.0000
64.0200 379.0000 1.0000
64.0300 400.0000 1.0000
64.0400 363.0000 1.0000
64.0500 370.0000 1.0000
64.0600 396.0000 1.0000
64.0700 406.0000 1.0000
64.0800 361.0000 1.0000
64.0900 352.0000 1.0000
64.1000 367.0000 1.0000
64.1100 369.0000 1.0000
64.1200 379.0000 1.0000
64.1300 365.0000 1.0000
64.1400 339.0000 1.0000
64.1500 344.0000 1.0000
64.1600 374.0000 1.0000
64.1700 325.0000 1.0000
64.1800 337.0000 1.0000
64.1900 303.0000 1.0000
64.2000 331.0000 1.0000
64.2100 340.0000 1.0000
64.2200 294.0000 1.0000
64.2300 313.0000 1.0000
64.2400 343.0000 1.0000
64.2500 321.0000 1.0000
64.2600 319.0000 1.0000
64.2700 312.0000 1.0000
64.2800 309.0000 1.0000
64.2900 288.0000 1.0000
64.3000 308.0000 1.0000
64.3100 280.0000 1.0000
64.3200 285.0000 1.0000
64.3300 297.0000 1.0000
64.3400 289.0000 1.0000
64.3500 283.0000 1.0000
64.3600 248.0000 1.0000
64.3700 271.0000 1.0000
64.3800 307.0000 1.0000
64.3900 295.0000 1.0000
64.4000 310.0000 1.0000
64.4100 283.0000 1.0000
64.4200 286.0000 1.0000
64.4300 277.0000 1.0000
64.4400 325.0000 1.0000
64.4500 311.0000 1.0000
64.4600 293.0000 1.0000
64.4700 282.0000 1.0000
64.4800 290.0000 1.0000
64.4900 292.0000 1.0000
64.5000 290.0000 1.0000
64.5100 289.0000 1.0000
64.5200 294.0000 1.0000
64.5300 299.0000 1.0000
64.5400 305.0000 1.0000
64.5500 242.0000 1.0000
64.5600 261.0000 1.0000
64.5700 288.0000 1.0000
64.5800 262.0000 1.0000
64.5900 265.0000 1.0000
64.6000 289.0000 1.0000
64.6100 263.0000 1.0000
64.6200 290.0000 1.0000
64.6300 292.0000 1.0000
64.6400 253.0000 1.0000
64.6500 297.0000 1.0000
64.6600 264.0000 1.0000
64.6700 245.0000 1.0000
64.6800 274.0000 1.0000
64.6900 270.0000 1.0000
64.7000 259.0000 1.0000
64.7100 258.0000 1.0000
64.7200 277.0000 1.0000
64.7300 276.0000 1.0000
64.7400 282.0000 1.0000
64.7500 255.0000 1.0000
64.7600 263.0000 1.0000
64.7700 268.0000 1.0000
64.7800 265.0000 1.0000
64.7900 285.0000 1.0000
64.8000 273.0000 1.0000
64.8100 253.0000 1.0000
64.8200 274.0000 1.0000
64.8300 272.0000 1.0000
64.8400 289.0000 1.0000
64.8500 286.0000 1.0000
64.8600 261.0000 1.0000
64.8700 287.0000 1.0000
64.8800 278.0000 1.0000
64.8900 274.0000 1.0000
64.9000 253.0000 1.0000
64.9100 252.0000 1.0000
64.9200 290.0000 1.0000
64.9300 278.0000 1.0000
64.9400 279.0000 1.0000
64.9500 269.0000 1.0000
64.9600 291.0000 1.0000
64.9700 284.0000 1.0000
64.9800 285.0000 1.0000
64.9900 305.0000 1.0000
65.0000 272.0000 1.0000
65.0100 289.0000 1.0000
65.0200 287.0000 1.0000
65.0300 286.0000 1.0000
65.0400 279.0000 1.0000
65.0500 309.0000 1.0000
65.0600 297.0000 1.0000
65.0700 297.0000 1.0000
65.0800 302.0000 1.0000
65.0900 285.0000 1.0000
65.1000 311.0000 1.0000
65.1100 291.0000 1.0000
65.1200 300.0000 1.0000
65.1300 315.0000 1.0000
65.1400 305.0000 1.0000
65.1500 306.0000 1.0000
65.1600 300.0000 1.0000
65.1700 333.0000 1.0000
65.1800 322.0000 1.0000
65.1900 338.0000 1.0000
65.2000 343.0000 1.0000
65.2100 359.0000 1.0000
65.2200 342.0000 1.0000
65.2300 366.0000 1.0000
65.2400 400.0000 1.0000
65.2500 405.0000 1.0000
65.2600 392.0000 1.0000
65.2700 416.0000 1.0000
65.2800 402.0000 1.0000
65.2900 423.0000 1.0000
65.3000 440.0000 1.0000
65.3100 481.0000 1.0000
65.3200 474.0000 1.0000
65.3300 493.0000 1.0000
65.3400 486.0000 1.0000
65.3500 504.0000 1.0000
65.3600 592.0000 1.0000
65.3700 580.0000 1.0000
65.3800 569.0000 1.0000
65.3900 615.0000 1.0000
65.4000 746.0000 1.0000
65.4100 704.0000 1.0000
65.4200 727.0000 1.0000
65.4300 732.0000 1.0000
65.4400 721.0000 1.0000
65.4500 791.0000 1.0000
65.4600 825.0000 1.0000
65.4700 837.0000 1.0000
65.4800 831.0000 1.0000
65.4900 843.0000 1.0000
65.5000 847.0000 1.0000
65.5100 875.0000 1.0000
65.5200 857.0000 1.0000
65.5300 888.0000 1.0000
65.5400 932.0000 1.0000
65.5500 886.0000 1.0000
65.5600 891.0000 1.0000
65.5700 889.0000 1.0000
65.5800 863.0000 1.0000
65.5900 838.0000 1.0000
65.6000 859.0000 1.0000
65.6100 847.0000 1.0000
65.6200 856.0000 1.0000
65.6300 844.0000 1.0000
65.6400 849.0000 1.0000
65.6500 860.0000 1.0000
65.6600 833.0000 1.0000
65.6700 799.0000 1.0000
65.6800 829.0000 1.0000
65.6900 799.0000 1.0000
65.7000 781.0000 1.0000
65.7100 724.0000 1.0000
65.7200 679.0000 1.0000
65.7300 712.0000 1.0000
65.7400 690.0000 1.0000
65.7500 706.0000 1.0000
65.7600 674.0000 1.0000
65.7700 621.0000 1.0000
65.7800 605.0000 1.0000
65.7900 633.0000 1.0000
65.8000 559.0000 1.0000
65.8100 570.0000 1.0000
65.8200 542.0000 1.0000
65.8300 513.0000 1.0000
65.8400 532.0000 1.0000
65.8500 487.0000 1.0000
65.8600 528.0000 1.0000
65.8700 467.0000 1.0000
65.8800 472.0000 1.0000
65.8900 444.0000 1.0000
65.9000 428.0000 1.0000
65.9100 418.0000 1.0000
65.9200 415.0000 1.0000
65.9300 413.0000 1.0000
65.9400 382.0000 1.0000
65.9500 395.0000 1.0000
65.9600 360.0000 1.0000
65.9700 360.0000 1.0000
65.9800 363.0000 1.0000
65.9900 349.0000 1.0000
66.0000 349.0000 1.0000
66.0100 351.0000 1.0000
66.0200 333.0000 1.0000
66.0300 321.0000 1.0000
66.0400 320.0000 1.0000
66.0500 332.0000 1.0000
66.0600 331.0000 1.0000
66.0700 309.0000 1.0000
66.0800 325.0000 1.0000
66.0900 334.0000 1.0000
66.1000 284.0000 1.0000
66.1100 297.0000 1.0000
66.1200 300.0000 1.0000
66.1300 323.0000 1.0000
66.1400 316.0000 1.0000
66.1500 290.0000 1.0000
66.1600 308.0000 1.0000
66.1700 307.0000 1.0000
66.1800 306.0000 1.0000
66.1900 289.0000 1.0000
66.2000 289.0000 1.0000
66.2100 293.0000 1.0000
66.2200 300.0000 1.0000
66.2300 290.0000 1.0000
66.2400 284.0000 1.0000
66.2500 277.0000 1.0000
66.2600 282.0000 1.0000
66.2700 272.0000 1.0000
66.2800 261.0000 1.0000
66.2900 263.0000 1.0000
66.3000 268.0000 1.0000
66.3100 264.0000 1.0000
66.3200 247.0000 1.0000
66.3300 293.0000 1.0000
66.3400 278.0000 1.0000
66.3500 266.0000 1.0000
66.3600 268.0000 1.0000
66.3700 266.0000 1.0000
66.3800 256.0000 1.0000
66.3900 240.0000 1.0000
66.4000 267.0000 1.0000
66.4100 277.0000 1.0000
66.4200 268.0000 1.0000
66.4300 237.0000 1.0000
66.4400 277.0000 1.0000
66.4500 263.0000 1.0000
66.4600 278.0000 1.0000
66.4700 249.0000 1.0000
66.4800 266.0000 1.0000
66.4900 285.0000 1.0000
66.5000 250.0000 1.0000
66.5100 282.0000 1.0000
66.5200 259.0000 1.0000
66.5300 276.0000 1.0000
66.5400 273.0000 1.0000
66.5500 270.0000 1.0000
66.5600 269.0000 1.0000
66.5700 237.0000 1.0000
66.5800 237.0000 1.0000
66.5900 259.0000 1.0000
66.6000 263.0000 1.0000
66.6100 272.0000 1.0000
66.6200 266.0000 1.0000
66.6300 261.0000 1.0000
66.6400 268.0000 1.0000
66.6500 251.0000 1.0000
66.6600 253.0000 1.0000
66.6700 253.0000 1.0000
66.6800 255.0000 1.0000
66.6900 267.0000 1.0000
66.7000 241.0000 1.0000
66.7100 277.0000 1.0000
66.7200 268.0000 1.0000
66.7300 239.0000 1.0000
66.7400 239.0000 1.0000
66.7500 251.0000 1.0000
66.7600 259.0000 1.0000
66.7700 240.0000 1.0000
66.7800 243.0000 1.0000
66.7900 239.0000 1.0000
66.8000 233.0000 1.0000
66.8100 241.0000 1.0000
66.8200 245.0000 1.0000
66.8300 246.0000 1.0000
66.8400 240.0000 1.0000
66.8500 230.0000 1.0000
66.8600 231.0000 1.0000
66.8700 241.0000 1.0000
66.8800 242.0000 1.0000
66.8900 248.0000 1.0000
66.9000 237.0000 1.0000
66.9100 275.0000 1.0000
66.9200 256.0000 1.0000
66.9300 243.0000 1.0000
66.9400 258.0000 1.0000
66.9500 261.0000 1.0000
66.9600 251.0000 1.0000
66.9700 253.0000 1.0000
66.9800 221.0000 1.0000
66.9900 238.0000 1.0000
67.0000 241.0000 1.0000
67.0100 247.0000 1.0000
67.0200 253.0000 1.0000
67.0300 244.0000 1.0000
67.0400 243.0000 1.0000
67.0500 241.0000 1.0000
67.0600 233.0000 1.0000
67.0700 256.0000 1.0000
67.0800 261.0000 1.0000
67.0900 243.0000 1.0000
67.1000 249.0000 1.0000
67.1100 235.0000 1.0000
67.1200 249.0000 1.0000
67.1300 248.0000 1.0000
67.1400 261.0000 1.0000
67.1500 246.0000 1.0000
67.1600 243.0000 1.0000
67.1700 268.0000 1.0000
67.1800 223.0000 1.0000
67.1900 243.0000 1.0000
67.2000 227.0000 1.0000
67.2100 240.0000 1.0000
67.2200 244.0000 1.0000
67.2300 247.0000 1.0000
67.2400 263.0000 1.0000
67.2500 268.0000 1.0000
67.2600 237.0000 1.0000
67.2700 243.0000 1.0000
67.2800 247.0000 1.0000
67.2900 240.0000 1.0000
67.3000 254.0000 1.0000
67.3100 256.0000 1.0000
67.3200 234.0000 1.0000
67.3300 239.0000 1.0000
67.3400 243.0000 1.0000
67.3500 220.0000 1.0000
67.3600 230.0000 1.0000
67.3700 237.0000 1.0000
67.3800 232.0000 1.0000
67.3900 256.0000 1.0000
67.4000 245.0000 1.0000
67.4100 266.0000 1.0000
67.4200 249.0000 1.0000
67.4300 240.0000 1.0000
67.4400 217.0000 1.0000
67.4500 248.0000 1.0000
67.4600 232.0000 1.0000
67.4700 230.0000 1.0000
67.4800 239.0000 1.0000
67.4900 226.0000 1.0000
67.5000 248.0000 1.0000
67.5100 230.0000 1.0000
67.5200 268.0000 1.0000
67.5300 237.0000 1.0000
67.5400 241.0000 1.0000
67.5500 227.0000 1.0000
67.5600 238.0000 1.0000
67.5700 202.0000 1.0000
67.5800 245.0000 1.0000
67.5900 267.0000 1.0000
67.6000 233.0000 1.0000
67.6100 220.0000 1.0000
67.6200 239.0000 1.0000
67.6300 264.0000 1.0000
67.6400 228.0000 1.0000
67.6500 271.0000 1.0000
67.6600 246.0000 1.0000
67.6700 259.0000 1.0000
67.6800 271.0000 1.0000
67.6900 264.0000 1.0000
67.7000 241.0000 1.0000
67.7100 216.0000 1.0000
67.7200 233.0000 1.0000
67.7300 212.0000 1.0000
67.7400 223.0000 1.0000
67.7500 235.0000 1.0000
67.7600 224.0000 1.0000
67.7700 240.0000 1.0000
67.7800 248.0000 1.0000
67.7900 245.0000 1.0000
67.8000 242.0000 1.0000
67.8100 266.0000 1.0000
67.8200 255.0000 1.0000
67.8300 231.0000 1.0000
67.8400 249.0000 1.0000
67.8500 246.0000 1.0000
67.8600 262.0000 1.0000
67.8700 232.0000 1.0000
67.8800 221.0000 1.0000
67.8900 229.0000 1.0000
67.9000 252.0000 1.0000
67.9100 235.0000 1.0000
67.9200 240.0000 1.0000
67.9300 253.0000 1.0000
67.9400 239.0000 1.0000
67.9500 220.0000 1.0000
67.9600 233.0000 1.0000
67.9700 225.0000 1.0000
67.9800 250.0000 1.0000
67.9900 248.0000 1.0000
68.0000 242.0000 1.0000
68.0100 243.0000 1.0000
68.0200 245.0000 1.0000
68.0300 245.0000 1.0000
68.0400 234.0000 1.0000
68.0500 234.0000 1.0000
68.0600 239.0000 1.0000
68.0700 226.0000 1.0000
68.0800 238.0000 1.0000
68.0900 233.0000 1.0000
68.1000 219.0000 1.0000
68.1100 227.0000 1.0000
68.1200 232.0000 1.0000
68.1300 226.0000 1.0000
68.1400 239.0000 1.0000
68.1500 238.0000 1.0000
68.1600 231.0000 1.0000
68.1700 220.0000 1.0000
68.1800 221.0000 1.0000
68.1900 198.0000 1.0000
68.2000 213.0000 1.0000
68.2100 231.0000 1.0000
68.2200 252.0000 1.0000
68.2300 253.0000 1.0000
68.2400 247.0000 1.0000
68.2500 218.0000 1.0000
68.2600 229.0000 1.0000
68.2700 234.0000 1.0000
68.2800 233.0000 1.0000
68.2900 256.0000 1.0000
68.3000 242.0000 1.0000
68.3100 230.0000 1.0000
68.3200 222.0000 1.0000
68.3300 244.0000 1.0000
68.3400 247.0000 1.0000
68.3500 248.0000 1.0000
68.3600 265.0000 1.0000
68.3700 229.0000 1.0000
68.3800 260.0000 1.0000
68.3900 238.0000 1.0000
68.4000 222.0000 1.0000
68.4100 211.0000 1.0000
68.4200 228.0000 1.0000
68.4300 249.0000 1.0000
68.4400 238.0000 1.0000
68.4500 233.0000 1.0000
68.4600 248.0000 1.0000
68.4700 232.0000 1.0000
68.4800 217.0000 1.0000
68.4900 239.0000 1.0000
68.5000 205.0000 1.0000
68.5100 204.0000 1.0000
68.5200 242.0000 1.0000
68.5300 246.0000 1.0000
68.5400 253.0000 1.0000
68.5500 235.0000 1.0000
68.5600 225.0000 1.0000
68.5700 235.0000 1.0000
68.5800 269.0000 1.0000
68.5900 233.0000 1.0000
68.6000 218.0000 1.0000
68.6100 256.0000 1.0000
68.6200 246.0000 1.0000
68.6300 228.0000 1.0000
68.6400 214.0000 1.0000
68.6500 232.0000 1.0000
68.6600 230.0000 1.0000
68.6700 250.0000 1.0000
68.6800 225.0000 1.0000
68.6900 241.0000 1.0000
68.7000 244.0000 1.0000
68.7100 244.0000 1.0000
68.7200 246.0000 1.0000
68.7300 267.0000 1.0000
68.7400 231.0000 1.0000
68.7500 223.0000 1.0000
68.7600 232.0000 1.0000
68.7700 225.0000 1.0000
68.7800 239.0000 1.0000
68.7900 226.0000 1.0000
68.8000 235.0000 1.0000
68.8100 251.0000 1.0000
68.8200 233.0000 1.0000
68.8300 232.0000 1.0000
68.8400 234.0000 1.0000
68.8500 221.0000 1.0000
68.8600 211.0000 1.0000
68.8700 225.0000 1.0000
68.8800 228.0000 1.0000
68.8900 220.0000 1.0000
68.9000 240.0000 1.0000
68.9100 228.0000 1.0000
68.9200 235.0000 1.0000
68.9300 240.0000 1.0000
68.9400 253.0000 1.0000
68.9500 247.0000 1.0000
68.9600 235.0000 1.0000
68.9700 237.0000 1.0000
68.9800 233.0000 1.0000
68.9900 220.0000 1.0000
69.0000 253.0000 1.0000
69.0100 243.0000 1.0000
69.0200 263.0000 1.0000
69.0300 220.0000 1.0000
69.0400 215.0000 1.0000
69.0500 225.0000 1.0000
69.0600 254.0000 1.0000
69.0700 222.0000 1.0000
69.0800 208.0000 1.0000
69.0900 239.0000 1.0000
69.1000 263.0000 1.0000
69.1100 252.0000 1.0000
69.1200 237.0000 1.0000
69.1300 246.0000 1.0000
69.1400 257.0000 1.0000
69.1500 232.0000 1.0000
69.1600 238.0000 1.0000
69.1700 259.0000 1.0000
69.1800 239.0000 1.0000
69.1900 234.0000 1.0000
69.2000 225.0000 1.0000
69.2100 228.0000 1.0000
69.2200 239.0000 1.0000
69.2300 242.0000 1.0000
69.2400 243.0000 1.0000
69.2500 222.0000 1.0000
69.2600 227.0000 1.0000
69.2700 242.0000 1.0000
69.2800 242.0000 1.0000
69.2900 222.0000 1.0000
69.3000 216.0000 1.0000
69.3100 232.0000 1.0000
69.3200 264.0000 1.0000
69.3300 245.0000 1.0000
69.3400 226.0000 1.0000
69.3500 249.0000 1.0000
69.3600 222.0000 1.0000
69.3700 235.0000 1.0000
69.3800 232.0000 1.0000
69.3900 234.0000 1.0000
69.4000 264.0000 1.0000
69.4100 239.0000 1.0000
69.4200 219.0000 1.0000
69.4300 236.0000 1.0000
69.4400 249.0000 1.0000
69.4500 224.0000 1.0000
69.4600 228.0000 1.0000
69.4700 254.0000 1.0000
69.4800 249.0000 1.0000
69.4900 226.0000 1.0000
69.5000 218.0000 1.0000
69.5100 257.0000 1.0000
69.5200 241.0000 1.0000
69.5300 242.0000 1.0000
69.5400 241.0000 1.0000
69.5500 229.0000 1.0000
69.5600 220.0000 1.0000
69.5700 221.0000 1.0000
69.5800 229.0000 1.0000
69.5900 236.0000 1.0000
69.6000 230.0000 1.0000
69.6100 224.0000 1.0000
69.6200 226.0000 1.0000
69.6300 218.0000 1.0000
69.6400 220.0000 1.0000
69.6500 220.0000 1.0000
69.6600 239.0000 1.0000
69.6700 241.0000 1.0000
69.6800 226.0000 1.0000
69.6900 207.0000 1.0000
69.7000 228.0000 1.0000
69.7100 236.0000 1.0000
69.7200 205.0000 1.0000
69.7300 221.0000 1.0000
69.7400 204.0000 1.0000
69.7500 211.0000 1.0000
69.7600 237.0000 1.0000
69.7700 227.0000 1.0000
69.7800 213.0000 1.0000
69.7900 218.0000 1.0000
69.8000 221.0000 1.0000
69.8100 243.0000 1.0000
69.8200 229.0000 1.0000
69.8300 231.0000 1.0000
69.8400 199.0000 1.0000
69.8500 206.0000 1.0000
69.8600 212.0000 1.0000
69.8700 231.0000 1.0000
69.8800 255.0000 1.0000
69.8900 214.0000 1.0000
69.9000 215.0000 1.0000
69.9100 209.0000 1.0000
69.9200 222.0000 1.0000
69.9300 213.0000 1.0000
69.9400 214.0000 1.0000
69.9500 245.0000 1.0000
69.9600 212.0000 1.0000
69.9700 235.0000 1.0000
69.9800 257.0000 1.0000
69.9900 209.0000 1.0000
70.0000 236.0000 1.0000
*RAS_INT_END
*RAS_TEMPERATURE_START
*RAS_TEMPERATURE_END
*RAS_DATA_END
