RamanScope Measure Spectrum Data V3.72

<< MEASURE CONDITION >>
Exposure Type,Aver
Exposure Time [sec],15
Exposure Count,30
Measure Time,2023/07/12 21:01:37
Data Name,""
Data Comment,""
Rayleigh Wave[nm],532.0

<< SAMPLE SPECTRUM >>
Wave[dcm-1],No50
146.591,961.97
147.626,1115.47
148.664,1285.50
149.699,1468.13
150.737,1665.97
151.772,1840.60
152.809,2010.67
153.846,2143.57
154.881,2276.40
155.918,2384.97
156.953,2477.20
157.989,2552.27
159.026,2629.10
160.060,2653.43
161.096,2729.80
162.130,2767.97
163.167,2798.17
164.200,2843.23
165.236,2879.87
166.272,2940.77
167.305,3012.90
168.341,3063.17
169.374,3130.30
170.409,3196.87
171.445,3270.40
172.477,3344.93
173.512,3391.40
174.545,3448.77
175.580,3460.93
176.614,3476.10
177.647,3493.70
178.681,3455.67
179.713,3438.53
180.747,3422.63
181.781,3381.97
182.813,3358.13
183.847,3324.83
184.878,3299.60
185.912,3274.43
186.945,3302.23
187.976,3298.90
189.010,3301.93
190.043,3297.27
191.073,3322.30
192.106,3341.97
193.137,3385.30
194.170,3414.60
195.202,3430.33
196.232,3468.10
197.265,3511.67
198.297,3570.93
199.327,3623.03
200.359,3665.10
201.388,3716.73
202.420,3806.47
203.452,3861.80
204.481,3933.47
205.512,4009.87
206.544,4099.43
207.573,4211.77
208.604,4300.27
209.635,4433.33
210.663,4535.23
211.694,4635.70
212.725,4762.23
213.753,4883.20
214.783,4959.03
215.813,5007.23
216.841,5038.23
217.871,5036.07
218.899,5025.27
219.929,4999.03
220.959,4914.60
221.986,4822.43
223.016,4734.97
224.045,4656.87
225.072,4562.73
226.101,4474.07
227.130,4378.67
228.157,4325.73
229.185,4255.00
230.214,4217.13
231.241,4143.67
232.269,4114.83
233.297,4100.23
234.323,4091.33
235.351,4052.83
236.379,4046.67
237.407,4058.83
238.433,4036.13
239.460,4057.20
240.488,4074.73
241.513,4083.77
242.540,4106.77
243.568,4124.40
244.592,4153.43
245.619,4137.20
246.646,4129.13
247.671,4114.20
248.697,4110.90
249.724,4132.00
250.748,4117.87
251.774,4103.83
252.801,4118.13
253.827,4157.13
254.850,4182.50
255.876,4207.20
256.902,4219.67
257.925,4248.53
258.951,4293.10
259.976,4349.60
260.999,4373.10
262.024,4392.30
263.049,4448.70
264.074,4510.23
265.097,4571.97
266.122,4609.57
267.146,4640.33
268.168,4699.20
269.193,4768.03
270.217,4814.23
271.241,4837.87
272.263,4856.37
273.287,4866.77
274.311,4926.17
275.332,4935.50
276.356,4925.90
277.379,4917.60
278.402,4870.83
279.424,4852.43
280.447,4824.03
281.470,4741.37
282.492,4685.37
283.513,4621.70
284.536,4593.27
285.558,4532.10
286.581,4445.53
287.601,4361.43
288.623,4299.13
289.645,4234.17
290.665,4201.40
291.687,4132.10
292.709,4058.50
293.730,4008.00
294.750,3978.60
295.771,3923.00
296.792,3884.13
297.813,3802.10
298.832,3786.90
299.853,3726.23
300.874,3693.73
301.895,3657.93
302.913,3610.10
303.934,3557.90
304.954,3555.30
305.975,3017.40
306.993,3493.33
308.013,3452.00
309.033,3433.43
310.052,3413.80
311.072,3398.77
312.090,3384.83
313.109,3355.70
314.129,3329.70
315.148,3337.00
316.165,3315.23
317.184,3320.53
318.203,3275.10
319.222,3268.23
320.238,3265.80
321.257,3257.37
322.275,3258.10
323.294,3220.70
324.312,3214.53
325.328,3195.07
326.346,3229.83
327.364,3227.67
328.382,3200.97
329.397,3199.53
330.415,3189.23
331.432,3184.03
332.450,3197.07
333.467,3164.10
334.482,3153.07
335.499,3147.60
336.516,3177.53
337.533,3176.23
338.547,3152.77
339.564,3144.37
340.580,3151.30
341.597,3142.27
342.613,3147.17
343.627,3144.47
344.643,3126.63
345.659,3132.77
346.675,3139.70
347.690,3119.87
348.704,3123.67
349.719,3108.10
350.735,3115.80
351.750,3134.17
352.765,3152.37
353.778,3127.77
354.793,3119.10
355.808,3129.20
356.822,3153.27
357.837,3162.17
358.851,3163.63
359.864,3162.80
360.878,3161.90
361.892,3179.03
362.906,3172.43
363.920,3194.07
364.932,3184.87
365.945,3183.60
366.959,3207.07
367.972,3228.10
368.986,3238.67
369.999,3229.10
371.010,3243.87
372.023,3248.03
373.036,3268.23
374.049,3290.47
375.061,3283.00
376.072,3274.90
377.084,3295.17
378.097,3314.90
379.109,3322.60
380.121,3310.27
381.133,3303.10
382.143,3325.40
383.155,3306.17
384.166,3305.87
385.178,3291.07
386.189,3276.93
387.201,3299.30
388.212,3291.77
389.221,3281.00
390.232,3258.43
391.243,3239.50
392.254,3227.47
393.264,3219.00
394.275,3213.43
395.283,3200.37
396.294,3156.80
397.304,3139.13
398.314,3162.67
399.324,3136.47
400.334,3118.33
401.344,3062.43
402.351,3058.17
403.361,3061.70
404.370,3042.63
405.380,3036.17
406.389,3005.00
407.398,2991.83
408.407,2989.87
409.414,2997.00
410.423,2949.37
411.431,2933.27
412.440,2931.90
413.448,2916.33
414.457,2907.67
415.465,2876.80
416.471,2848.30
417.479,2847.80
418.487,2846.80
419.495,2848.47
420.503,2844.50
421.510,2807.00
422.518,2817.87
423.525,2810.03
424.530,2797.60
425.537,2789.00
426.544,2777.73
427.551,2785.77
428.558,2769.83
429.565,2769.57
430.571,2764.27
431.578,2749.17
432.582,2740.87
433.588,2744.53
434.595,2754.50
435.601,2749.03
436.607,2731.47
437.612,2730.20
438.618,2723.10
439.624,2717.93
440.627,2726.67
441.633,2725.47
442.638,2694.67
443.643,2705.33
444.648,2717.40
445.653,2702.57
446.658,2704.67
447.663,2707.40
448.667,2701.13
449.672,2725.40
450.674,2726.27
451.678,2704.33
452.682,2705.83
453.687,2707.90
454.690,2724.63
455.694,2732.70
456.698,2713.00
457.702,2703.70
458.705,2710.43
459.709,2704.50
460.710,2738.20
461.713,2723.83
462.716,2721.50
463.719,2708.50
464.722,2734.03
465.725,2716.63
466.727,2748.83
467.730,2722.30
468.732,2715.77
469.735,2727.10
470.737,2754.40
471.737,2746.77
472.739,2727.57
473.741,2717.13
474.742,2733.23
475.744,2752.70
476.746,2750.53
477.747,2731.33
478.748,2724.73
479.750,2741.70
480.751,2745.97
481.752,2728.47
482.753,2722.80
483.751,2709.00
484.752,2724.23
485.753,2728.07
486.753,2742.97
487.753,2728.60
488.754,2716.30
489.754,2685.73
490.754,2704.17
491.754,2738.20
492.754,2722.30
493.753,2703.67
494.753,2704.70
495.752,2698.23
496.752,2702.03
497.749,2697.93
498.748,2680.97
499.747,2658.00
500.746,2662.50
501.745,2693.70
502.744,2674.87
503.742,2657.77
504.741,2636.33
505.739,2634.03
506.737,2643.17
507.735,2634.00
508.734,2622.30
509.732,2605.47
510.729,2610.13
511.727,2612.33
512.725,2621.00
513.720,2604.03
514.718,2604.67
515.715,2576.50
516.712,2585.83
517.709,2595.83
518.706,2594.63
519.703,2591.80
520.700,2580.20
521.696,2598.73
522.693,2598.87
523.689,2601.43
524.686,2585.40
525.682,2578.77
526.678,2580.67
527.674,2594.93
528.670,2614.67
529.666,2594.40
530.661,2600.23
531.657,2595.83
532.652,2613.13
533.648,2615.20
534.641,2611.17
535.636,2574.20
536.631,2604.20
537.626,2607.30
538.621,2614.23
539.616,2592.47
540.610,2592.80
541.605,2584.93
542.599,2600.17
543.593,2597.30
544.587,2590.53
545.581,2601.30
546.575,2593.17
547.569,2591.00
548.563,2593.00
549.557,2605.03
550.550,2568.43
551.543,2563.33
552.537,2570.83
553.530,2575.63
554.523,2591.93
555.516,2586.80
556.509,2559.20
557.502,2562.27
558.494,2581.33
559.487,2586.83
560.479,2576.13
561.472,2580.47
562.464,2571.13
563.456,2578.03
564.448,2594.60
565.440,2604.87
566.432,2578.57
567.423,2593.17
568.415,2595.23
569.404,2605.10
570.396,2617.20
571.387,2607.00
572.378,2604.70
573.369,2627.07
574.360,2645.03
575.351,2655.87
576.341,2642.73
577.332,2630.40
578.323,2633.90
579.313,2655.73
580.303,2653.93
581.293,2636.43
582.283,2649.67
583.273,2644.40
584.263,2649.60
585.253,2666.27
586.243,2676.93
587.232,2647.87
588.222,2648.70
589.211,2654.33
590.200,2668.40
591.189,2661.73
592.178,2641.77
593.167,2634.77
594.156,2645.57
595.145,2646.77
596.133,2648.63
597.122,2638.33
598.110,2623.70
599.098,2625.33
600.086,2623.67
601.074,2635.83
602.062,2620.60
603.050,2592.17
604.038,2593.97
605.025,2585.67
606.013,2605.07
607.000,2584.30
607.987,2552.13
608.975,2541.33
609.962,2553.77
610.949,2553.27
611.936,2526.33
612.922,2492.53
613.909,2484.87
614.895,2471.07
615.882,2474.13
616.868,2470.37
617.854,2461.77
618.841,2455.70
619.826,2420.00
620.812,2414.40
621.798,2406.77
622.784,2383.30
623.769,2367.47
624.755,2352.97
625.740,2355.93
626.725,2348.33
627.711,2337.80
628.698,2310.57
629.683,2288.33
630.667,2285.60
631.652,2281.47
632.637,2278.33
633.621,2251.53
634.606,2245.43
635.590,2235.80
636.574,2230.27
637.558,2215.03
638.542,2205.27
639.526,2171.53
640.510,2168.43
641.493,2173.63
642.477,2179.97
643.460,2148.47
644.444,2146.97
645.427,2141.17
646.410,2123.83
647.393,2127.60
648.376,2120.10
649.359,2096.53
650.341,2080.67
651.324,2095.90
652.307,2083.40
653.289,2088.17
654.271,2072.30
655.253,2062.73
656.235,2054.17
657.217,2070.50
658.199,2064.80
659.181,2037.73
660.163,2035.10
661.144,2026.87
662.126,2023.43
663.107,2025.10
664.088,2015.13
665.069,2009.67
666.050,1991.73
667.033,2001.10
668.014,1983.40
668.995,1984.17
669.975,1962.13
670.956,1945.30
671.936,1946.10
672.916,1937.03
673.896,1932.90
674.876,1916.57
675.856,1903.13
676.836,1900.90
677.816,1891.40
678.795,1884.23
679.775,1863.57
680.754,1845.43
681.734,1826.60
682.713,1828.37
683.692,1820.57
684.671,1817.77
685.650,1801.97
686.629,1785.47
687.607,1789.53
688.586,1789.43
689.564,1792.93
690.543,1770.20
691.523,1752.33
692.501,1750.40
693.479,1752.37
694.457,1748.47
695.435,1729.03
696.413,1738.27
697.390,1714.57
698.368,1703.93
699.345,1706.57
700.322,1706.77
701.300,1685.63
702.277,1690.23
703.254,1686.33
704.231,1683.67
705.207,1692.67
706.184,1691.40
707.161,1671.17
708.137,1654.10
709.113,1655.50
710.090,1657.53
711.068,1650.77
712.044,1641.83
713.020,1641.03
713.996,1642.70
714.971,1634.30
715.947,1629.90
716.922,1624.50
717.898,1604.47
718.873,1618.63
719.848,1616.20
720.823,1627.93
721.798,1605.53
722.773,1602.80
723.748,1594.97
724.723,1588.63
725.697,1601.03
726.672,1583.40
727.646,1585.10
728.622,1573.30
729.596,1582.93
730.570,1588.50
731.544,1571.53
732.518,1575.63
733.492,1565.40
734.466,1561.67
735.439,1558.47
736.413,1566.97
737.386,1540.77
738.359,1545.63
739.332,1544.07
740.305,1531.53
741.278,1568.93
742.251,1542.40
743.224,1538.30
744.196,1521.00
745.171,1526.20
746.143,1514.83
747.115,1526.00
748.087,1504.97
749.059,1506.00
750.031,1511.63
751.003,1509.03
751.975,1515.77
752.947,1506.07
753.918,1500.43
754.890,1478.13
755.861,1489.20
756.832,1484.07
757.803,1476.33
758.774,1472.53
759.747,1474.87
760.718,1463.30
761.689,1468.37
762.659,1469.37
763.630,1461.63
764.600,1447.57
765.570,1444.97
766.540,1447.57
767.510,1449.87
768.480,1447.83
769.450,1442.30
770.420,1426.30
771.390,1427.63
772.359,1433.20
773.329,1416.17
774.300,1415.20
775.269,1415.17
776.238,1408.93
777.207,1402.80
778.176,1414.47
779.145,1394.20
780.114,1398.20
781.083,1387.67
782.051,1387.73
783.019,1375.80
783.988,1385.33
784.956,1376.37
785.924,1363.37
786.894,1374.57
787.862,1364.67
788.830,1373.40
789.797,1373.67
790.765,1343.10
791.732,1343.33
792.700,1355.10
793.667,1345.00
794.634,1336.23
795.601,1329.33
796.568,1333.13
797.535,1331.53
798.502,1328.20
799.468,1331.37
800.437,1304.93
801.403,1312.80
802.370,1310.83
803.336,1312.13
804.302,1315.87
805.268,1307.30
806.234,1307.40
807.200,1292.93
808.166,1290.37
809.131,1297.70
810.097,1311.90
811.062,1292.00
812.027,1275.23
812.994,1281.97
813.960,1289.60
814.925,1294.93
815.889,1285.03
816.854,1274.97
817.819,1273.93
818.783,1269.87
819.748,1279.17
820.712,1273.80
821.677,1277.07
822.641,1268.50
823.605,1270.23
824.571,1279.93
825.534,1275.03
826.498,1285.60
827.462,1270.87
828.425,1259.63
829.389,1266.90
830.352,1278.20
831.315,1269.90
832.279,1253.80
833.242,1247.37
834.204,1265.60
835.167,1254.73
836.132,1265.20
837.095,1270.50
838.057,1263.00
839.020,1248.60
839.982,1271.73
840.944,1262.17
841.906,1248.27
842.868,1253.00
843.830,1249.93
844.792,1255.87
845.753,1264.20
846.715,1251.77
847.679,1263.63
848.640,1253.00
849.601,1257.27
850.562,1260.23
851.523,1257.47
852.484,1256.77
853.445,1255.13
854.406,1249.67
855.367,1252.33
856.327,1265.40
857.288,1248.70
858.248,1254.33
859.210,1249.40
860.170,1260.37
861.130,1268.50
862.090,1246.73
863.050,1265.03
864.010,1251.83
864.969,1249.03
865.929,1234.90
866.888,1243.43
867.848,1243.83
868.807,1250.57
869.766,1258.17
870.727,1245.80
871.686,1249.40
872.645,1258.97
873.604,1252.13
874.562,1248.77
875.521,1259.43
876.479,1251.03
877.437,1245.83
878.396,1251.17
879.354,1254.23
880.312,1260.63
881.270,1269.80
882.229,1247.43
883.187,1285.70
884.145,1273.30
885.102,1261.20
886.059,1267.30
887.017,1269.13
887.974,1282.03
888.931,1275.80
889.888,1272.97
890.845,1264.87
891.802,1273.57
892.758,1278.33
893.717,1282.03
894.673,1280.90
895.630,1280.20
896.586,1279.13
897.542,1279.43
898.498,1291.17
899.454,1288.10
900.410,1297.93
901.366,1288.60
902.321,1291.53
903.277,1287.83
904.232,1303.43
905.189,1301.47
906.145,1292.13
907.100,1303.40
908.055,1294.83
909.010,1300.47
909.965,1300.37
910.919,1298.77
911.874,1309.03
912.828,1304.63
913.783,1310.87
914.737,1329.77
915.693,1323.93
916.648,1321.93
917.602,1320.47
918.555,1326.97
919.509,1329.53
920.463,1322.27
921.417,1323.40
922.370,1311.17
923.324,1317.10
924.277,1319.80
925.230,1327.17
926.183,1325.97
927.138,1316.90
928.091,1323.93
929.044,1325.63
929.996,1340.97
930.949,1337.13
931.902,1348.60
932.854,1340.77
933.806,1332.77
934.758,1344.43
935.711,1339.60
936.663,1348.80
937.614,1336.30
938.568,1341.43
939.520,1338.73
940.471,1345.10
941.423,1355.50
942.374,1338.97
943.326,1340.30
944.277,1338.70
945.228,1336.70
946.179,1331.73
947.130,1338.73
948.080,1330.17
949.031,1328.63
949.984,1314.57
950.934,1325.80
951.884,1330.83
952.835,1322.87
953.785,1313.23
954.735,1319.90
955.685,1318.73
956.635,1320.07
957.585,1327.73
958.534,1296.23
959.484,1306.80
960.433,1297.80
961.383,1302.53
962.334,1304.97
963.283,1294.07
964.232,1303.10
965.181,1299.33
966.130,1286.57
967.079,1286.53
968.027,1282.83
968.976,1278.80
969.924,1288.20
970.873,1278.30
971.821,1276.03
972.769,1282.37
973.719,1281.40
974.667,1271.23
975.615,1270.53
976.562,1266.00
977.510,1271.67
978.458,1264.77
979.405,1260.80
980.352,1261.00
981.300,1264.37
982.247,1274.97
983.194,1254.07
984.141,1252.17
985.088,1245.23
986.036,1244.50
986.983,1237.97
987.930,1242.40
988.876,1253.90
989.822,1239.47
990.769,1241.93
991.715,1236.73
992.661,1247.53
993.607,1239.73
994.553,1222.57
995.498,1222.23
996.444,1222.70
997.389,1234.30
998.337,1231.53
999.282,1220.50
1000.227,1216.90
1001.173,1215.47
1002.118,1205.27
1003.062,1217.83
1004.007,1211.93
1004.952,1207.30
1005.897,1191.87
1006.841,1186.27
1007.786,1197.87
1008.730,1198.43
1009.674,1191.17
1010.618,1201.63
1011.564,1196.43
1012.508,1195.80
1013.452,1181.03
1014.396,1205.70
1015.339,1196.47
1016.283,1194.63
1017.226,1187.37
1018.170,1179.83
1019.113,1193.60
1020.056,1186.73
1020.999,1193.67
1021.942,1176.40
1022.885,1182.90
1023.828,1182.70
1024.770,1176.33
1025.715,1177.03
1026.657,1183.00
1027.600,1173.47
1028.542,1177.33
1029.484,1181.80
1030.426,1181.73
1031.368,1172.27
1032.310,1170.10
1033.251,1171.77
1034.193,1173.17
1035.135,1176.73
1036.076,1176.43
1037.017,1172.13
1037.959,1170.43
1038.900,1174.57
1039.843,1179.83
1040.784,1181.20
1041.725,1179.13
1042.665,1178.03
1043.606,1166.60
1044.547,1173.73
1045.487,1174.90
1046.427,1178.30
1047.368,1165.97
1048.308,1165.97
1049.248,1173.53
1050.188,1176.17
1051.128,1175.83
1052.067,1175.00
1053.007,1163.57
1053.947,1163.57
1054.886,1163.33
1055.827,1165.27
1056.766,1177.53
1057.706,1173.70
1058.645,1175.93
1059.584,1167.83
1060.522,1170.97
1061.461,1189.77
1062.400,1179.27
1063.338,1190.00
1064.277,1184.17
1065.215,1183.07
1066.154,1173.63
1067.092,1176.50
1068.030,1191.40
1068.968,1178.47
1069.906,1180.93
1070.843,1174.83
1071.781,1191.30
1072.720,1190.73
1073.658,1177.20
1074.595,1183.13
1075.533,1190.87
1076.470,1180.77
1077.407,1182.37
1078.344,1190.93
1079.281,1186.10
1080.217,1186.83
1081.154,1177.03
1082.091,1190.77
1083.027,1189.73
1083.964,1184.80
1084.900,1182.93
1085.836,1187.33
1086.772,1171.60
1087.708,1180.63
1088.644,1174.93
1089.580,1179.70
1090.515,1181.40
1091.451,1185.73
1092.388,1172.63
1093.324,1176.00
1094.259,1182.57
1095.194,1170.07
1096.129,1158.73
1097.064,1162.83
1097.999,1169.40
1098.934,1166.60
1099.869,1159.93
1100.803,1158.77
1101.738,1147.27
1102.672,1146.77
1103.607,1148.00
1104.541,1143.63
1105.475,1143.07
1106.409,1143.27
1107.343,1133.97
1108.277,1127.93
1109.210,1132.93
1110.144,1124.90
1111.078,1126.83
1112.011,1120.47
1112.944,1104.07
1113.878,1120.90
1114.811,1113.00
1115.744,1113.03
1116.678,1111.17
1117.611,1103.30
1118.544,1094.17
1119.477,1104.57
1120.409,1101.80
1121.342,1097.70
1122.274,1088.77
1123.206,1562.80
1124.138,1077.00
1125.070,1086.37
1126.002,1082.30
1126.934,1072.47
1127.866,1079.47
1128.798,1080.83
1129.729,1075.33
1130.661,1087.63
1131.592,1069.70
1132.523,1059.73
1133.454,1067.60
1134.385,1060.40
1135.317,1065.80
1136.247,1060.73
1137.178,1055.77
1138.109,1058.47
1139.039,1059.50
1139.970,1042.20
1140.900,1042.70
1141.831,1052.27
1142.761,1037.97
1143.691,1040.10
1144.621,1036.50
1145.551,1034.73
1146.480,1036.03
1147.410,1047.90
1148.340,1027.90
1149.269,1037.47
1150.199,1039.30
1151.128,1028.30
1152.057,1035.30
1152.979,1027.70
1153.898,1020.07
1154.819,1016.53
1155.739,1020.23
1156.658,1020.40
1157.579,1028.53
1158.498,1022.43
1159.419,1022.13
1160.338,1009.03
1161.256,1025.70
1162.177,1018.43
1163.095,1014.83
1164.016,1014.00
1164.934,1017.77
1165.852,1011.93
1166.772,1013.03
1167.690,1017.33
1168.610,1023.53
1169.528,1013.13
1170.446,1010.97
1171.365,1009.97
1172.283,996.60
1173.202,1014.93
1174.120,1000.07
1175.037,1011.90
1175.956,1010.63
1176.873,1012.80
1177.792,1010.70
1178.709,1006.93
1179.626,998.13
1180.544,998.97
1181.461,991.97
1182.379,1010.80
1183.296,1008.07
1184.212,992.93
1185.130,1000.10
1186.046,998.77
1186.962,1004.33
1187.880,997.67
1188.796,1001.10
1189.714,999.83
1190.629,989.87
1191.545,990.43
1192.462,999.77
1193.378,1005.30
1194.295,999.00
1195.210,996.57
1196.125,998.63
1197.042,1000.40
1197.957,1003.67
1198.872,1003.13
1199.788,1001.60
1200.703,997.70
1201.619,993.27
1202.534,997.60
1203.448,996.40
1204.364,1014.30
1205.278,990.47
1206.192,1011.13
1207.108,1000.37
1208.022,1000.30
1208.938,1006.23
1209.851,1004.10
1210.765,1016.10
1211.680,1014.73
1212.594,1004.13
1213.507,1003.50
1214.422,1008.97
1215.335,1011.37
1216.248,1021.27
1217.163,1014.50
1218.076,1005.93
1218.990,1019.70
1219.903,1018.03
1220.816,1012.93
1221.730,1027.70
1222.642,1022.83
1223.554,1005.97
1224.469,1006.97
1225.380,1016.10
1226.292,1018.90
1227.206,1019.07
1228.118,1025.77
1229.032,1022.63
1229.943,1029.63
1230.855,1034.20
1231.768,1033.87
1232.679,1027.60
1233.590,1031.43
1234.503,1020.13
1235.414,1037.87
1236.325,1037.93
1237.238,1032.57
1238.149,1031.70
1239.059,1023.73
1239.972,1042.87
1240.882,1040.30
1241.793,1038.90
1242.705,1043.70
1243.615,1045.63
1244.525,1038.40
1245.437,1034.00
1246.347,1036.40
1247.259,1037.77
1248.168,1031.63
1249.078,1034.10
1249.989,1037.83
1250.899,1044.07
1251.808,1047.07
1252.719,1054.80
1253.628,1047.60
1254.537,1047.00
1255.448,1037.47
1256.357,1049.50
1257.266,1050.60
1258.176,1043.33
1259.085,1042.43
1259.993,1059.17
1260.904,1039.70
1261.812,1046.10
1262.720,1048.83
1263.630,1052.80
1264.538,1049.93
1265.446,1051.53
1266.356,1055.43
1267.263,1050.00
1268.171,1050.13
1269.080,1058.10
1269.988,1044.70
1270.895,1035.43
1271.804,1049.80
1272.711,1051.60
1273.619,1054.83
1274.527,1041.33
1275.434,1044.93
1276.341,1040.90
1277.248,1040.07
1278.156,1036.27
1279.063,1034.80
1279.969,1032.40
1280.877,1026.00
1281.783,1036.17
1282.690,1033.70
1283.598,1027.97
1284.503,1029.40
1285.409,1028.07
1286.317,1031.57
1287.223,1032.40
1288.128,1023.33
1289.036,1027.53
1289.941,1020.93
1290.846,1018.00
1291.751,1025.50
1292.658,1009.57
1293.563,1021.43
1294.468,1015.57
1295.375,1010.23
1296.280,1005.73
1297.184,1002.43
1298.091,997.97
1298.995,1011.50
1299.900,1007.10
1300.806,996.10
1301.710,987.43
1302.614,996.10
1303.518,998.90
1304.424,990.67
1305.327,992.67
1306.231,982.93
1307.137,975.73
1308.040,974.13
1308.943,981.97
1309.847,977.33
1310.752,973.80
1311.655,964.23
1312.558,959.93
1313.463,958.47
1314.366,952.20
1315.269,951.77
1316.171,944.30
1317.076,951.43
1317.978,942.47
1318.881,935.43
1319.785,934.80
1320.687,932.57
1321.589,924.80
1322.491,921.10
1323.395,919.00
1324.297,922.83
1325.198,926.80
1326.102,941.23
1327.004,927.77
1327.905,931.60
1328.806,911.23
1329.709,922.10
1330.611,920.33
1331.512,913.40
1332.413,903.37
1333.316,897.67
1334.216,907.63
1335.117,898.17
1336.020,895.80
1336.920,893.83
1337.821,886.27
1338.721,885.77
1339.623,889.47
1340.523,885.40
1341.423,887.27
1342.323,875.33
1343.225,878.90
1344.125,877.47
1345.025,869.17
1345.924,870.77
1346.826,854.03
1347.725,860.63
1348.624,864.07
1349.524,852.87
1350.425,854.17
1351.324,861.77
1352.223,846.10
1353.121,849.30
1354.022,841.90
1354.921,845.20
1355.819,833.43
1356.718,846.07
1357.618,837.97
1358.516,833.30
1359.415,836.30
1360.313,828.63
1361.213,812.67
1362.111,814.83
1363.008,836.30
1363.906,817.47
1364.806,819.97
1365.703,820.87
1366.601,812.73
1367.498,810.60
1368.397,814.30
1369.295,816.90
1370.192,801.17
1371.089,801.10
1371.987,804.30
1372.884,806.00
1373.781,794.27
1374.678,801.47
1375.574,792.90
1376.473,804.03
1377.369,802.00
1378.265,786.00
1379.161,776.77
1380.059,780.10
1380.955,787.03
1381.851,782.40
1382.747,769.47
1383.643,777.97
1384.540,783.83
1385.436,773.43
1386.331,770.30
1387.227,763.40
1388.124,775.30
1389.019,768.50
1389.914,760.27
1390.809,763.40
1391.704,755.13
1392.601,760.70
1393.495,763.23
1394.390,752.70
1395.285,764.03
1396.179,761.77
1397.075,747.57
1397.969,757.40
1398.864,754.93
1399.758,751.57
1400.652,758.27
1401.547,750.30
1402.441,745.07
1403.335,756.83
1404.229,748.83
1405.122,744.07
1406.017,742.40
1406.911,737.87
1407.804,746.03
1408.697,730.57
1409.590,731.93
1410.485,747.80
1411.378,734.13
1412.271,721.13
1413.163,725.27
1414.056,739.27
1414.949,747.10
1415.843,731.23
1416.735,717.70
1417.627,734.53
1418.520,720.07
1419.412,722.27
1420.306,720.47
1421.197,717.87
1422.089,716.77
1422.981,718.13
1423.873,713.17
1424.764,727.63
1425.657,720.77
1426.549,719.47
1427.440,714.03
1428.331,704.90
1429.222,710.00
1430.113,701.80
1431.006,707.00
1431.897,697.73
1432.787,718.53
1433.678,696.27
1434.568,708.53
1435.459,703.67
1436.351,694.13
1437.241,695.63
1438.131,706.10
1439.021,694.90
1439.911,694.90
1440.801,697.30
1441.693,692.63
1442.583,688.43
1443.472,696.03
1444.362,698.60
1445.251,683.63
1446.140,691.53
1447.030,686.23
1447.921,700.27
1448.810,687.73
1449.699,689.00
1450.588,688.17
1451.476,684.93
1452.365,687.53
1453.254,684.37
1454.144,683.73
1455.032,680.60
1455.921,673.30
1456.809,680.20
1457.697,679.67
1458.585,677.50
1459.473,678.17
1460.361,660.70
1461.251,676.87
1462.138,664.60
1463.026,662.07
1463.913,666.97
1464.801,663.77
1465.688,669.43
1466.575,666.10
1467.463,678.73
1468.351,664.23
1469.238,671.47
1470.125,666.40
1471.012,666.17
1471.899,659.33
1472.785,655.63
1473.672,654.97
1474.558,659.20
1475.446,658.20
1476.333,662.90
1477.219,650.60
1478.105,656.83
1478.991,654.30
1479.877,656.60
1480.762,661.73
1481.648,635.20
1482.534,652.37
1483.419,637.13
1484.307,642.40
1485.192,650.57
1486.077,653.97
1486.962,645.77
1487.847,640.60
1488.732,643.53
1489.617,642.63
1490.502,643.37
1491.387,651.40
1492.271,640.77
1493.156,644.20
1494.042,641.20
1494.927,635.47
1495.811,631.30
1496.695,650.33
1497.579,639.00
1498.463,638.33
1499.347,629.80
1500.231,621.37
1501.114,623.83
1501.998,635.07
1502.881,628.83
1503.765,626.43
1504.648,616.77
1505.533,633.90
1506.417,635.90
1507.300,626.47
1508.183,626.53
1509.066,622.80
1509.948,621.47
1510.831,627.07
1511.714,620.03
1512.596,620.23
1513.479,628.07
1514.361,621.20
1515.243,608.90
1516.125,612.13
1517.008,621.73
1517.890,614.33
1518.771,610.07
1519.655,614.27
1520.537,613.80
1521.419,607.13
1522.300,609.97
1523.182,603.97
1524.063,613.40
1524.944,614.67
1525.825,602.27
1526.707,605.37
1527.588,607.97
1528.468,605.03
1529.349,612.37
1530.230,600.50
1531.111,615.70
1531.991,597.70
1532.872,599.30
1533.752,602.87
1534.632,606.87
1535.513,604.63
1536.393,596.13
1537.273,597.57
1538.153,591.70
1539.032,592.60
1539.912,592.50
1540.792,598.57
1541.672,588.13
1542.551,599.90
1543.430,595.63
1544.310,600.90
1545.189,593.67
1546.068,602.97
1546.947,586.10
1547.826,588.07
1548.705,594.40
1549.584,595.27
1550.462,598.30
1551.341,599.43
1552.219,583.03
1553.098,584.33
1553.976,597.33
1554.854,591.67
1555.733,591.00
1556.611,591.47
1557.489,580.23
1558.367,591.07
1559.244,581.37
1560.122,591.87
1561.000,589.00
1561.877,584.60
1562.755,577.37
1563.632,583.87
1564.509,590.17
1565.386,580.20
1566.264,575.90
1567.141,583.50
1568.017,583.03
1568.894,581.73
1569.771,571.43
1570.648,577.23
1571.524,569.53
1572.401,568.20
1573.277,582.60
1574.153,577.97
1575.029,573.47
1575.906,572.93
1576.781,568.43
1577.657,568.07
1578.533,582.73
1579.409,568.33
1580.285,562.07
1581.160,558.90
1582.036,574.07
1582.911,559.33
1583.786,566.57
1584.662,557.57
1585.537,561.67
1586.412,573.93
1587.287,579.70
1588.160,564.10
1589.035,562.30
1589.909,560.80
1590.784,559.57
1591.658,568.47
1592.533,562.17
1593.407,572.50
1594.281,570.00
1595.155,563.43
1596.029,548.87
1596.903,559.07
1597.777,561.97
1598.651,555.10
1599.525,553.40
1600.398,546.97
1601.272,555.30
1602.144,572.67
1603.017,556.33
1603.890,579.23
1604.763,555.67
1605.636,559.57
1606.509,562.13
1607.382,556.53
1608.255,554.03
1609.128,570.30
1610.000,558.10
1610.873,557.00
1611.746,554.43
1612.616,554.47
1613.488,559.60
1614.361,558.53
1615.233,551.03
1616.105,556.60
1616.977,543.70
1617.849,558.03
1618.720,551.27
1619.592,558.33
1620.464,550.67
1621.333,551.20
1622.205,547.97
1623.076,554.83
1623.947,550.07
1624.818,558.10
1625.689,551.07
1626.560,534.73
1627.431,542.47
1628.302,550.87
1629.171,558.40
1630.042,552.63
1630.912,778.57
1631.782,550.90
1632.653,547.70
1633.523,549.27
1634.393,547.17
1635.263,538.57
1636.131,554.27
1637.001,545.40
1637.871,544.43
1638.741,531.50
1639.611,541.10
1640.480,537.37
1641.350,541.77
1642.219,549.70
1643.087,542.50
1643.956,533.80
1644.825,530.73
1645.694,542.83
1646.563,538.63
1647.432,532.67
1648.299,538.77
1649.167,535.43
1650.036,538.67
1650.904,526.17
1651.773,538.33
1652.641,536.03
1653.509,531.67
1654.376,543.57
1655.244,523.10
1656.112,526.77
1656.980,531.93
1657.847,529.50
1658.715,533.57
1659.581,529.37
1660.448,541.47
1661.316,531.60
1662.183,535.80
1663.051,535.03
1663.918,528.57
1664.783,534.30
1665.650,532.90
1666.517,529.10
1667.384,524.47
1668.251,529.73
1669.115,532.50
1669.982,534.77
1670.849,536.97
1671.715,525.70
1672.581,538.87
1673.446,530.17
1674.312,520.93
1675.178,531.93
1676.044,522.93
1676.910,524.23
1677.774,527.30
1678.639,519.80
1679.505,521.47
1680.370,521.93
1681.236,516.43
1682.099,530.67
1682.965,518.13
1683.830,527.10
1684.695,530.63
1685.560,526.57
1686.423,534.67
1687.288,516.93
1688.153,524.13
1689.017,522.47
1689.880,519.20
1690.745,526.97
1691.609,521.03
1692.473,534.37
1693.338,531.73
1694.200,518.83
1695.064,521.33
1695.928,514.80
1696.792,519.10
1697.654,521.60
1698.517,511.30
1699.381,517.87
1700.245,509.33
1701.106,526.23
1701.969,517.53
1702.833,522.30
1703.696,523.70
1704.557,518.13
1705.420,520.27
1706.283,509.87
1707.146,511.50
1708.007,522.87
1708.870,522.00
1709.732,513.50
1710.595,511.87
1711.455,515.67
1712.318,505.13
1713.180,518.30
1714.040,518.90
1714.902,502.67
1715.764,528.00
1716.626,510.10
1717.486,510.20
1718.348,517.77
1719.209,507.17
1720.071,516.50
1720.930,508.10
1721.792,509.90
1722.653,508.60
1723.512,512.57
1724.374,501.60
1725.234,505.03
1726.095,502.30
1726.954,508.73
1727.815,497.03
1728.676,513.40
1729.535,525.40
1730.395,509.57
1731.256,513.30
1732.114,515.00
1732.974,507.97
1733.834,517.50
1734.693,513.37
1735.553,507.53
1736.413,508.10
1737.272,510.43
1738.130,494.10
1738.990,501.37
1739.849,500.33
1740.707,513.60
1741.566,505.33
1742.426,502.03
1743.283,513.30
1744.142,501.27
1745.001,507.53
1745.858,510.30
1746.717,506.63
1747.576,495.63
1748.433,502.90
1749.292,510.67
1750.150,501.23
1751.007,506.83
1751.865,504.23
1752.723,509.27
1753.579,502.70
1754.438,507.87
1755.296,504.50
1756.152,506.20
1757.010,496.80
1757.865,494.53
1758.723,496.77
1759.581,501.90
1760.436,497.90
1761.294,496.30
1762.151,499.63
1763.006,490.77
1763.864,491.93
1764.721,507.60
1765.576,498.43
1766.433,500.27
1767.288,490.50
1768.144,494.53
1769.001,501.83
1769.856,501.80
1770.712,496.47
1771.568,504.07
1772.423,502.90
1773.279,489.83
1774.133,494.93
1774.989,495.67
1775.845,496.30
1776.699,504.97
1777.555,501.60
1778.409,503.10
1779.265,491.17
1780.120,497.50
1780.974,487.20
1781.829,489.40
1782.682,494.33
1783.538,499.50
1784.393,497.37
1785.246,490.93
1786.101,497.97
1786.954,508.93
1787.808,500.67
1788.661,500.93
1789.516,490.47
1790.370,489.63
1791.223,499.20
1792.077,494.47
1792.930,493.37
1793.784,491.70
1794.636,486.10
1795.490,496.43
1796.344,495.50
1797.196,492.13
1798.049,492.93
1798.901,502.63
1799.755,489.17
1800.606,482.17
1801.460,493.73
1802.311,497.23
1803.165,497.23
1804.018,493.47
1804.869,493.00
1805.722,493.13
1806.573,489.60
1807.426,486.97
1808.276,493.73
1809.129,494.07
1809.980,488.43
1810.832,480.60
1811.683,485.43
1812.535,484.83
1813.385,485.20
1814.237,493.40
1815.089,487.47
1815.940,483.70
1816.791,474.57
1817.641,491.57
1818.493,481.17
1819.343,487.37
1820.194,475.60
1821.044,485.40
1821.895,492.53
1822.745,481.33
1823.596,487.97
1824.445,484.90
1825.296,486.87
1826.145,489.43
1826.996,478.30
1827.845,486.60
1828.695,489.13
1829.544,484.50
1830.395,471.33
1831.243,484.63
1832.094,480.50
1832.942,488.37
1833.792,474.93
1834.640,476.77
1835.490,473.63
1836.338,482.73
1837.186,481.33
1838.036,483.87
1838.884,474.43
1839.733,484.90
1840.581,486.30
1841.430,479.50
1842.278,473.90
1843.127,475.10
1843.974,476.90
1844.823,475.47
1845.671,480.73
1846.519,473.43
1847.366,479.90
1848.213,471.50
1849.062,474.57
1849.909,478.37
1850.757,482.27
1851.604,477.97
1852.452,472.60
1853.298,477.83
1854.146,474.27
1854.993,465.73
1855.839,487.33
1856.687,479.17
1857.532,480.93
1858.380,473.40
1859.226,468.17
1860.073,473.57
1860.919,476.90
1861.765,468.20
1862.612,479.00
1863.457,462.13
1864.304,475.43
1865.150,474.43
1865.995,472.33
1866.842,465.57
1867.686,467.20
1868.533,481.63
1869.378,467.13
1870.223,467.83
1871.069,472.87
1871.914,463.13
1872.760,467.87
1873.604,471.27
1874.448,462.83
1875.294,466.40
1876.139,471.13
1876.984,475.70
1877.828,466.50
1878.672,471.27
1879.518,466.23
1880.361,458.33
1881.205,472.50
1882.050,478.40
1882.894,472.60
1883.739,469.83
1884.582,475.73
1885.425,471.77
1886.270,482.87
1887.113,471.00
1887.956,460.87
1888.801,476.20
1889.644,468.70
1890.486,477.53
1891.331,458.63
1892.173,458.90
1893.017,470.53
1893.860,465.63
1894.702,468.50
1895.546,469.57
1896.388,474.30
1897.230,460.30
1898.074,457.13
1898.916,465.53
1899.757,465.97
1900.601,473.83
1901.443,466.47
1902.284,476.00
1903.125,465.43
1903.969,466.13
1904.810,466.30
1905.651,464.37
1906.494,458.97
1907.335,462.90
1908.176,459.37
1909.018,465.50
1909.859,467.10
1910.700,454.73
1911.542,454.83
1912.383,471.33
1913.223,466.30
1914.064,458.57
1914.906,468.37
1915.746,466.73
1916.586,465.00
1917.428,465.00
1918.268,459.37
1919.107,459.00
1919.947,457.80
1920.789,467.87
1921.628,471.90
1922.468,458.93
1923.309,457.33
1924.148,457.33
1924.988,461.00
1925.827,463.97
1926.667,470.57
1927.507,450.03
1928.345,462.07
1929.184,460.47
1930.025,456.93
1930.864,459.03
1931.702,472.33
1932.541,470.37
1933.381,457.37
1934.219,465.10
1935.057,467.07
1935.896,464.27
1936.735,458.37
1937.573,454.93
1938.411,460.20
1939.249,474.07
1940.089,456.47
1940.927,458.73
1941.764,462.87
1942.602,458.70
1943.439,474.67
1944.278,451.67
1945.115,455.17
1945.953,451.20
1946.790,460.77
1947.628,464.87
1948.465,455.37
1949.302,467.77
1950.139,458.40
1950.976,453.77
1951.814,462.40
1952.651,455.87
1953.487,456.80
1954.323,466.63
1955.160,458.30
1955.998,465.67
1956.834,459.83
1957.670,447.87
1958.506,458.87
1959.342,467.83
1960.177,460.80
1961.015,456.67
1961.850,448.57
1962.686,454.67
1963.521,453.90
1964.357,452.50
1965.192,459.27
1966.029,467.93
1966.864,450.90
1967.699,465.30
1968.534,447.40
1969.369,454.67
1970.204,447.67
1971.040,458.93
1971.875,446.30
1972.709,453.20
1973.544,453.87
1974.378,447.77
1975.212,453.10
1976.047,457.63
1976.882,457.63
1977.716,458.80
1978.550,457.83
1979.384,453.70
1980.218,452.37
1981.052,462.77
1981.885,461.57
1982.719,454.40
1983.554,455.03
1984.388,453.60
1985.221,466.83
1986.054,457.37
1986.887,452.07
1987.720,446.93
1988.553,452.53
1989.386,455.87
1990.219,450.33
1991.053,463.00
1991.886,448.73
1992.719,465.90
1993.551,461.40
1994.383,446.13
1995.216,436.60
1996.048,444.63
1996.880,460.23
1997.712,456.17
1998.544,456.23
1999.376,456.20
2000.208,449.80
2001.040,460.27
2001.873,450.57
2002.705,443.97
2003.536,457.60
2004.367,463.87
2005.199,442.30
2006.030,449.77
2006.861,446.77
2007.692,445.10
2008.523,452.63
2009.354,460.03
2010.185,451.70
2011.016,445.83
2011.846,451.37
2012.677,450.77
2013.507,444.27
2014.338,456.23
2015.168,450.03
2015.999,459.47
2016.829,447.60
2017.659,453.33
2018.489,454.43
2019.319,452.37
2020.149,460.73
2020.980,452.97
2021.810,452.63
2022.639,451.97
2023.469,457.60
2024.298,467.17
2025.128,451.17
2025.957,463.83
2026.786,454.13
2027.615,461.60
2028.444,458.53
2029.273,457.43
2030.102,461.70
2030.931,457.83
2031.758,461.60
2032.586,452.67
2033.415,459.07
2034.243,464.53
2035.072,464.83
2035.900,460.77
2036.728,462.27
2037.556,459.37
2038.385,459.10
2039.213,462.57
2040.040,461.87
2040.868,465.03
2041.696,474.80
2042.524,453.37
2043.351,456.47
2044.179,470.53
2045.006,459.33
2045.006,459.33

Max Intensity Wave.,216.841
Max Intensity Data,5038.23
Min Intensity Wave.,1995.216
Min Intensity Data,436.60
FWHM Wave.,375.377
FWHM Value,50.12
Pressure Wave.,684.671
Pressure Value [GPa],-24.91530
G/D Ratio,0.77917
G/D Gband Wave.,1630.910
G/D Gband Intensity,778.57
G/D Dband Wave.,1303.296
G/D Dband Intensity,999.23

<< BACKGROUND SPECTRUM >>
Wave[dcm-1],No50
146.591,2246.93
147.626,2096.77
148.664,2052.10
149.699,2532.30
150.737,2262.33
151.772,2408.27
152.809,2378.70
153.846,2310.17
154.881,2393.47
155.918,1969.97
156.953,2286.80
157.989,2594.10
159.026,2458.73
160.060,2634.50
161.096,2851.17
162.130,2492.10
163.167,2557.43
164.200,2442.80
165.236,2641.67
166.272,2676.03
167.305,2283.53
168.341,2536.97
169.374,2775.03
170.409,2784.30
171.445,2717.93
172.477,2523.77
173.512,2400.67
174.545,2662.57
175.580,2856.80
176.614,3035.13
177.647,2803.57
178.681,3036.30
179.713,3330.23
180.747,2799.70
181.781,2718.40
182.813,2992.97
183.847,3084.00
184.878,2718.67
185.912,2976.27
186.945,3126.17
187.976,3063.97
189.010,2721.63
190.043,2844.43
191.073,2938.03
192.106,2726.60
193.137,3180.03
194.170,2555.40
195.202,2902.57
196.232,2687.80
197.265,2984.27
198.297,3065.13
199.327,2763.40
200.359,2949.03
201.388,3316.87
202.420,2892.20
203.452,3086.80
204.481,2672.90
205.512,3312.77
206.544,3069.83
207.573,3051.23
208.604,3400.67
209.635,3513.57
210.663,2933.30
211.694,2971.60
212.725,2838.60
213.753,2794.53
214.783,3363.90
215.813,3225.97
216.841,2993.70
217.871,3170.30
218.899,2908.93
219.929,3136.43
220.959,2878.00
221.986,3143.20
223.016,2747.30
224.045,3155.13
225.072,3105.53
226.101,3201.60
227.130,3243.40
228.157,2816.53
229.185,2344.93
230.214,3182.70
231.241,2827.63
232.269,2457.90
233.297,2681.73
234.323,3221.97
235.351,2811.13
236.379,3085.37
237.407,2752.90
238.433,2942.47
239.460,3102.03
240.488,3111.07
241.513,3196.70
242.540,3097.53
243.568,3200.10
244.592,3222.50
245.619,3201.23
246.646,2921.23
247.671,2946.03
248.697,2805.00
249.724,3005.83
250.748,3002.03
251.774,2998.53
252.801,3295.77
253.827,3116.43
254.850,3072.60
255.876,2680.07
256.902,3135.40
257.925,2975.77
258.951,2737.60
259.976,2759.43
260.999,3089.17
262.024,2799.70
263.049,3638.87
264.074,3101.63
265.097,3014.47
266.122,3081.80
267.146,3020.53
268.168,3208.20
269.193,2848.17
270.217,3205.97
271.241,2704.17
272.263,2884.80
273.287,3170.53
274.311,2771.77
275.332,3278.90
276.356,2847.83
277.379,3076.23
278.402,3129.13
279.424,2930.13
280.447,2882.50
281.470,2724.60
282.492,3070.60
283.513,2902.80
284.536,3167.73
285.558,3154.03
286.581,3115.77
287.601,2842.37
288.623,2804.43
289.645,3073.67
290.665,3106.77
291.687,3126.63
292.709,3105.80
293.730,3394.83
294.750,2883.33
295.771,2755.37
296.792,3060.73
297.813,2915.40
298.832,3043.97
299.853,2732.57
300.874,2984.03
301.895,2959.27
302.913,2969.87
303.934,3269.10
304.954,3030.00
305.975,3711.23
306.993,2738.77
308.013,3109.40
309.033,3007.50
310.052,2924.97
311.072,2894.37
312.090,3035.87
313.109,3260.80
314.129,3405.33
315.148,2995.67
316.165,3062.43
317.184,3219.57
318.203,2750.40
319.222,2759.20
320.238,3129.23
321.257,2813.63
322.275,2700.27
323.294,2985.37
324.312,3142.00
325.328,3267.50
326.346,3285.33
327.364,3220.53
328.382,3161.17
329.397,3107.70
330.415,3234.07
331.432,3214.20
332.450,3256.47
333.467,3452.47
334.482,2588.37
335.499,3355.90
336.516,2870.70
337.533,2565.97
338.547,2838.30
339.564,2845.83
340.580,3091.97
341.597,2963.93
342.613,3446.87
343.627,2981.50
344.643,3010.93
345.659,3106.03
346.675,2984.73
347.690,2895.80
348.704,3078.53
349.719,2885.80
350.735,2751.57
351.750,3187.53
352.765,2997.13
353.778,2976.47
354.793,3143.10
355.808,2842.53
356.822,3184.93
357.837,2653.37
358.851,3242.20
359.864,2956.83
360.878,2745.00
361.892,2959.17
362.906,3164.20
363.920,2593.50
364.932,3092.73
365.945,3094.37
366.959,2997.50
367.972,2933.67
368.986,2698.40
369.999,3364.90
371.010,2843.70
372.023,3346.80
373.036,2959.10
374.049,3370.10
375.061,3073.60
376.072,2993.53
377.084,2859.77
378.097,2698.53
379.109,3189.47
380.121,2988.80
381.133,2684.47
382.143,3136.93
383.155,2731.63
384.166,2900.80
385.178,3110.37
386.189,3206.70
387.201,2713.90
388.212,2918.43
389.221,2917.13
390.232,3012.57
391.243,2927.73
392.254,3034.70
393.264,2845.90
394.275,3222.47
395.283,3164.40
396.294,3625.40
397.304,3485.80
398.314,3103.77
399.324,3036.03
400.334,2646.80
401.344,3163.23
402.351,2664.73
403.361,3207.27
404.370,2970.37
405.380,2897.80
406.389,3336.00
407.398,3115.83
408.407,3086.30
409.414,3151.93
410.423,3309.13
411.431,2770.47
412.440,2671.43
413.448,3338.77
414.457,2862.07
415.465,2815.93
416.471,2885.77
417.479,3020.23
418.487,2811.83
419.495,3295.17
420.503,3109.90
421.510,2620.83
422.518,3145.17
423.525,3178.07
424.530,3394.13
425.537,2898.23
426.544,3227.70
427.551,2849.33
428.558,3572.50
429.565,3444.67
430.571,2868.07
431.578,2899.50
432.582,2871.23
433.588,2959.37
434.595,2615.77
435.601,3299.30
436.607,3230.03
437.612,2765.87
438.618,3332.33
439.624,2945.17
440.627,2939.87
441.633,3101.30
442.638,3597.80
443.643,3095.17
444.648,3029.67
445.653,3201.03
446.658,2894.33
447.663,3016.17
448.667,2877.17
449.672,2902.60
450.674,2964.67
451.678,2711.73
452.682,2878.20
453.687,2841.97
454.690,3599.00
455.694,3263.60
456.698,2562.87
457.702,2659.30
458.705,2792.63
459.709,2809.30
460.710,2869.27
461.713,3027.07
462.716,3051.50
463.719,3004.20
464.722,3159.43
465.725,2958.17
466.727,2827.43
467.730,3038.37
468.732,2777.33
469.735,3291.70
470.737,2919.53
471.737,2890.53
472.739,2903.00
473.741,2814.17
474.742,3060.13
475.744,3088.73
476.746,3028.83
477.747,2948.80
478.748,3148.83
479.750,2925.10
480.751,2985.47
481.752,3737.43
482.753,3089.27
483.751,3542.97
484.752,2626.80
485.753,2970.53
486.753,2860.03
487.753,2989.57
488.754,3417.27
489.754,2710.53
490.754,3314.33
491.754,3115.37
492.754,2689.70
493.753,3018.13
494.753,2911.40
495.752,3321.50
496.752,3030.40
497.749,2984.13
498.748,2860.20
499.747,3389.87
500.746,3098.40
501.745,2761.57
502.744,2769.40
503.742,3312.43
504.741,2940.13
505.739,2481.47
506.737,2891.40
507.735,3142.07
508.734,3359.90
509.732,3146.47
510.729,3337.00
511.727,2891.73
512.725,2906.17
513.720,2774.13
514.718,3248.80
515.715,2674.03
516.712,2625.43
517.709,2987.77
518.706,2886.77
519.703,3029.97
520.700,3180.87
521.696,3343.57
522.693,2919.10
523.689,2846.27
524.686,3164.37
525.682,2798.17
526.678,3473.63
527.674,2915.10
528.670,2586.67
529.666,3490.63
530.661,3455.23
531.657,3649.20
532.652,3159.77
533.648,3003.20
534.641,3207.00
535.636,3053.50
536.631,3104.20
537.626,3152.77
538.621,2746.43
539.616,2601.87
540.610,2515.27
541.605,3005.47
542.599,3050.30
543.593,2995.23
544.587,3907.43
545.581,2834.90
546.575,3033.33
547.569,3026.73
548.563,2697.30
549.557,2659.77
550.550,2766.10
551.543,2754.13
552.537,3151.27
553.530,2762.43
554.523,2768.50
555.516,3097.90
556.509,2957.17
557.502,2634.07
558.494,3178.83
559.487,2903.83
560.479,3171.10
561.472,3225.03
562.464,3135.20
563.456,3283.07
564.448,2939.03
565.440,2995.20
566.432,3387.40
567.423,2905.33
568.415,2884.23
569.404,3111.90
570.396,2808.70
571.387,3121.10
572.378,3022.97
573.369,3936.27
574.360,3663.67
575.351,2946.27
576.341,2832.20
577.332,2877.13
578.323,2688.97
579.313,2869.03
580.303,3236.23
581.293,3130.27
582.283,2977.57
583.273,3118.93
584.263,3008.50
585.253,3096.00
586.243,3150.63
587.232,2659.63
588.222,2955.60
589.211,3172.33
590.200,3044.63
591.189,2941.00
592.178,2960.13
593.167,3404.73
594.156,3263.37
595.145,2882.57
596.133,3449.57
597.122,3108.93
598.110,3196.30
599.098,3073.50
600.086,3000.53
601.074,3174.30
602.062,2830.37
603.050,2734.50
604.038,3105.60
605.025,2796.80
606.013,3180.03
607.000,3371.10
607.987,3023.80
608.975,3056.60
609.962,2764.70
610.949,3138.77
611.936,3249.90
612.922,3168.63
613.909,2694.70
614.895,3347.47
615.882,2837.90
616.868,2994.77
617.854,2747.07
618.841,3004.93
619.826,3102.73
620.812,2983.97
621.798,2782.80
622.784,3184.70
623.769,3094.07
624.755,2709.93
625.740,3051.13
626.725,2719.23
627.711,2846.70
628.698,3059.07
629.683,2802.03
630.667,3168.33
631.652,2759.77
632.637,2946.43
633.621,3157.60
634.606,2923.87
635.590,3115.27
636.574,2943.10
637.558,3073.03
638.542,3037.43
639.526,2847.90
640.510,2635.53
641.493,3049.87
642.477,2978.43
643.460,2694.33
644.444,3229.33
645.427,3238.93
646.410,2670.13
647.393,2962.77
648.376,3064.27
649.359,2902.27
650.341,3090.90
651.324,3078.77
652.307,3038.90
653.289,2941.97
654.271,2870.07
655.253,2898.23
656.235,3117.80
657.217,3228.97
658.199,2624.17
659.181,2751.67
660.163,2990.97
661.144,2864.60
662.126,2886.10
663.107,2780.00
664.088,4671.30
665.069,3224.03
666.050,2819.80
667.033,2714.60
668.014,3042.03
668.995,2581.27
669.975,2987.47
670.956,2994.30
671.936,3133.23
672.916,2960.40
673.896,3091.03
674.876,2897.13
675.856,2851.63
676.836,2734.13
677.816,2315.23
678.795,2822.10
679.775,2686.30
680.754,3026.43
681.734,3148.73
682.713,3156.87
683.692,2770.97
684.671,2638.77
685.650,2753.47
686.629,2855.53
687.607,2737.97
688.586,2763.17
689.564,2834.50
690.543,3242.77
691.523,2389.50
692.501,2828.00
693.479,2924.97
694.457,2783.03
695.435,2862.77
696.413,2658.87
697.390,2508.70
698.368,2685.67
699.345,3102.00
700.322,2938.47
701.300,3065.20
702.277,3039.77
703.254,3252.30
704.231,2561.97
705.207,2951.73
706.184,2763.37
707.161,2659.23
708.137,2838.70
709.113,2796.47
710.090,2793.37
711.068,2602.83
712.044,2609.83
713.020,2878.60
713.996,2605.33
714.971,2805.07
715.947,2832.43
716.922,2806.27
717.898,2739.30
718.873,2882.40
719.848,2714.03
720.823,2688.90
721.798,2975.90
722.773,2744.50
723.748,2522.97
724.723,3010.17
725.697,2837.23
726.672,2751.73
727.646,2507.13
728.622,2991.40
729.596,2606.20
730.570,2729.70
731.544,3069.57
732.518,3256.77
733.492,2815.23
734.466,2863.20
735.439,2994.80
736.413,3100.80
737.386,2455.20
738.359,2427.20
739.332,2517.20
740.305,2846.83
741.278,3281.87
742.251,2913.83
743.224,2710.10
744.196,2560.37
745.171,3132.53
746.143,3029.93
747.115,2755.00
748.087,2716.43
749.059,3093.50
750.031,2888.37
751.003,3675.77
751.975,3244.03
752.947,2691.77
753.918,3083.17
754.890,2574.73
755.861,2757.60
756.832,3035.33
757.803,2833.77
758.774,2847.87
759.747,2598.47
760.718,3208.97
761.689,2730.13
762.659,2604.20
763.630,3141.97
764.600,2558.90
765.570,3051.27
766.540,3118.20
767.510,2918.13
768.480,3026.10
769.450,2714.87
770.420,2823.93
771.390,2645.50
772.359,2767.63
773.329,2663.57
774.300,2505.80
775.269,2747.20
776.238,2999.80
777.207,3150.57
778.176,2507.63
779.145,2796.47
780.114,2672.43
781.083,2560.03
782.051,2740.17
783.019,2690.03
783.988,3079.37
784.956,2831.33
785.924,2972.90
786.894,2878.10
787.862,2697.50
788.830,3125.67
789.797,2613.77
790.765,2583.10
791.732,2759.93
792.700,2653.07
793.667,2583.17
794.634,2750.73
795.601,2751.10
796.568,2776.67
797.535,2834.03
798.502,3428.90
799.468,2888.60
800.437,2412.83
801.403,2651.60
802.370,3282.50
803.336,2988.50
804.302,2855.70
805.268,2437.87
806.234,2543.73
807.200,2735.93
808.166,2782.57
809.131,2578.67
810.097,2970.63
811.062,3652.60
812.027,3010.03
812.994,2594.50
813.960,2612.23
814.925,2943.07
815.889,2511.97
816.854,3016.17
817.819,2645.83
818.783,2726.03
819.748,3091.00
820.712,2730.43
821.677,2612.33
822.641,2696.77
823.605,2708.83
824.571,3139.97
825.534,2742.70
826.498,2667.60
827.462,2805.73
828.425,2620.93
829.389,3057.60
830.352,2810.60
831.315,2904.80
832.279,2506.77
833.242,2760.67
834.204,2647.97
835.167,2642.57
836.132,3051.43
837.095,2504.13
838.057,2679.47
839.020,2811.03
839.982,2839.17
840.944,2671.90
841.906,2634.47
842.868,2960.80
843.830,2539.50
844.792,3042.83
845.753,2678.53
846.715,2438.60
847.679,2583.47
848.640,2616.37
849.601,2750.37
850.562,3245.73
851.523,2693.70
852.484,2474.90
853.445,2983.47
854.406,2700.43
855.367,2724.03
856.327,3030.77
857.288,2500.63
858.248,2680.13
859.210,2687.07
860.170,2517.40
861.130,2996.67
862.090,2415.53
863.050,2600.17
864.010,2676.23
864.969,2892.97
865.929,2597.63
866.888,2527.37
867.848,2827.53
868.807,2645.60
869.766,2834.63
870.727,2723.47
871.686,2987.67
872.645,2993.00
873.604,3290.43
874.562,2758.07
875.521,2786.30
876.479,3359.07
877.437,2597.00
878.396,2590.07
879.354,3165.50
880.312,2601.90
881.270,2663.03
882.229,3107.50
883.187,2605.57
884.145,2666.03
885.102,2924.43
886.059,2819.63
887.017,2886.93
887.974,2942.60
888.931,3052.60
889.888,2505.90
890.845,2437.63
891.802,2340.73
892.758,2642.50
893.717,2432.00
894.673,2566.53
895.630,2625.23
896.586,2899.73
897.542,2685.90
898.498,2528.30
899.454,2844.63
900.410,2674.17
901.366,2658.83
902.321,2613.70
903.277,2677.47
904.232,2743.47
905.189,2485.27
906.145,2637.17
907.100,2213.30
908.055,2709.70
909.010,2927.73
909.965,2344.33
910.919,2802.10
911.874,2569.73
912.828,2764.47
913.783,2770.47
914.737,2337.23
915.693,2750.47
916.648,2880.57
917.602,2943.50
918.555,2779.73
919.509,2836.53
920.463,2750.10
921.417,2764.63
922.370,2556.10
923.324,2676.93
924.277,2666.33
925.230,2759.67
926.183,2405.03
927.138,2687.53
928.091,2940.07
929.044,2818.03
929.996,2656.17
930.949,2648.90
931.902,2810.53
932.854,2822.83
933.806,2585.23
934.758,2959.77
935.711,2982.90
936.663,2751.03
937.614,2792.50
938.568,2739.87
939.520,2389.77
940.471,2708.40
941.423,2772.77
942.374,2881.63
943.326,2743.00
944.277,2590.40
945.228,2834.93
946.179,2687.63
947.130,3034.13
948.080,2657.00
949.031,2557.10
949.984,2682.97
950.934,2710.60
951.884,2467.30
952.835,2701.93
953.785,2732.10
954.735,2600.73
955.685,2360.00
956.635,2613.93
957.585,2632.10
958.534,2635.77
959.484,2737.50
960.433,2609.13
961.383,2458.47
962.334,2947.50
963.283,2780.03
964.232,2848.33
965.181,2709.20
966.130,2789.60
967.079,2623.33
968.027,2717.13
968.976,2715.00
969.924,2610.17
970.873,2805.27
971.821,2740.33
972.769,2925.47
973.719,2849.37
974.667,2484.13
975.615,2718.50
976.562,2726.77
977.510,2421.50
978.458,2609.77
979.405,2822.30
980.352,2754.30
981.300,2962.47
982.247,2783.53
983.194,2544.00
984.141,2624.67
985.088,2723.80
986.036,2777.37
986.983,3010.57
987.930,3111.80
988.876,2353.50
989.822,2952.63
990.769,2548.07
991.715,2604.10
992.661,2425.43
993.607,2790.77
994.553,3264.90
995.498,2592.90
996.444,2287.97
997.389,2768.87
998.337,2528.77
999.282,2861.67
1000.227,2654.37
1001.173,2695.47
1002.118,2449.57
1003.062,2902.87
1004.007,2686.10
1004.952,2990.23
1005.897,2928.87
1006.841,2700.90
1007.786,2458.43
1008.730,2430.67
1009.674,3175.13
1010.618,2641.13
1011.564,2500.33
1012.508,2385.83
1013.452,2937.83
1014.396,2724.53
1015.339,2609.13
1016.283,2688.00
1017.226,2744.43
1018.170,2706.97
1019.113,2873.63
1020.056,2726.93
1020.999,2705.63
1021.942,2595.07
1022.885,2853.47
1023.828,2992.53
1024.770,2505.47
1025.715,2748.37
1026.657,2680.67
1027.600,2755.17
1028.542,2916.80
1029.484,2747.87
1030.426,2838.73
1031.368,2783.70
1032.310,2570.00
1033.251,2534.60
1034.193,2694.63
1035.135,2487.47
1036.076,2622.83
1037.017,2540.20
1037.959,2827.73
1038.900,2765.50
1039.843,2792.87
1040.784,2743.70
1041.725,2790.47
1042.665,2614.77
1043.606,2758.50
1044.547,2735.90
1045.487,2362.17
1046.427,2666.90
1047.368,2770.57
1048.308,2239.43
1049.248,2516.80
1050.188,2694.77
1051.128,2610.87
1052.067,2660.47
1053.007,2400.63
1053.947,2391.00
1054.886,2567.63
1055.827,2491.57
1056.766,2950.67
1057.706,2443.53
1058.645,2649.30
1059.584,2749.57
1060.522,2975.53
1061.461,2442.17
1062.400,2469.93
1063.338,2635.20
1064.277,2494.40
1065.215,2509.13
1066.154,2397.50
1067.092,2578.70
1068.030,2635.70
1068.968,2854.47
1069.906,3005.27
1070.843,2952.27
1071.781,2740.23
1072.720,2801.13
1073.658,2817.37
1074.595,2598.57
1075.533,2551.40
1076.470,2587.33
1077.407,2974.77
1078.344,2755.43
1079.281,2789.37
1080.217,2294.30
1081.154,2658.70
1082.091,2725.47
1083.027,2447.93
1083.964,2915.90
1084.900,2557.10
1085.836,2600.60
1086.772,2880.70
1087.708,2453.63
1088.644,2830.27
1089.580,2682.93
1090.515,2738.33
1091.451,2590.83
1092.388,2711.53
1093.324,2440.67
1094.259,3220.43
1095.194,2733.17
1096.129,2605.60
1097.064,2563.87
1097.999,2805.47
1098.934,2525.67
1099.869,2534.53
1100.803,2706.63
1101.738,2697.23
1102.672,2398.37
1103.607,2809.73
1104.541,2542.53
1105.475,2533.03
1106.409,2423.33
1107.343,2594.03
1108.277,2438.93
1109.210,2696.53
1110.144,2667.87
1111.078,2656.90
1112.011,2442.80
1112.944,2758.67
1113.878,2710.37
1114.811,2180.97
1115.744,2571.07
1116.678,2310.30
1117.611,2569.73
1118.544,2590.57
1119.477,2751.43
1120.409,2545.67
1121.342,3118.17
1122.274,2744.90
1123.206,2983.47
1124.138,2680.53
1125.070,2971.87
1126.002,2840.63
1126.934,2290.93
1127.866,2559.33
1128.798,2325.73
1129.729,2366.80
1130.661,2645.03
1131.592,2566.60
1132.523,2735.53
1133.454,2754.30
1134.385,2288.37
1135.317,2635.93
1136.247,2580.57
1137.178,2849.27
1138.109,2366.17
1139.039,2993.63
1139.970,2824.10
1140.900,2572.23
1141.831,2346.13
1142.761,2242.93
1143.691,2750.83
1144.621,2650.23
1145.551,2698.77
1146.480,2695.30
1147.410,2834.43
1148.340,2301.63
1149.269,2371.13
1150.199,2585.10
1151.128,3039.83
1152.057,2440.00
1152.979,2582.97
1153.898,2615.13
1154.819,2724.40
1155.739,2626.03
1156.658,2551.50
1157.579,2666.03
1158.498,2624.23
1159.419,2179.00
1160.338,2679.23
1161.256,2694.40
1162.177,2499.10
1163.095,2622.60
1164.016,2702.30
1164.934,2884.37
1165.852,2816.93
1166.772,2609.00
1167.690,2644.20
1168.610,2684.43
1169.528,2641.17
1170.446,2190.30
1171.365,2540.20
1172.283,2518.23
1173.202,2623.87
1174.120,2670.70
1175.037,2482.63
1175.956,2453.43
1176.873,2488.57
1177.792,2518.90
1178.709,3096.67
1179.626,2532.20
1180.544,2837.00
1181.461,2509.23
1182.379,2722.73
1183.296,2614.57
1184.212,2277.63
1185.130,2477.90
1186.046,2954.77
1186.962,2620.67
1187.880,2903.20
1188.796,2670.63
1189.714,2434.60
1190.629,2761.33
1191.545,2698.40
1192.462,2561.43
1193.378,2594.03
1194.295,2344.00
1195.210,2646.13
1196.125,2765.97
1197.042,2704.50
1197.957,2631.37
1198.872,2501.67
1199.788,2532.60
1200.703,2955.93
1201.619,2648.80
1202.534,2500.07
1203.448,2711.20
1204.364,2577.57
1205.278,2302.87
1206.192,2664.90
1207.108,3129.67
1208.022,2978.17
1208.938,2474.60
1209.851,2774.67
1210.765,2845.43
1211.680,2534.30
1212.594,2405.47
1213.507,2570.90
1214.422,3015.90
1215.335,2747.10
1216.248,2560.33
1217.163,2631.50
1218.076,3221.43
1218.990,2735.70
1219.903,2415.47
1220.816,2457.93
1221.730,2590.37
1222.642,2500.93
1223.554,2547.20
1224.469,2712.37
1225.380,2581.93
1226.292,2284.60
1227.206,2754.80
1228.118,2952.60
1229.032,2264.23
1229.943,2506.27
1230.855,2565.70
1231.768,2371.43
1232.679,2701.73
1233.590,2595.20
1234.503,2840.53
1235.414,2484.07
1236.325,2498.03
1237.238,2696.17
1238.149,2720.17
1239.059,2452.77
1239.972,2799.67
1240.882,2437.93
1241.793,2753.87
1242.705,2974.87
1243.615,2575.87
1244.525,2701.50
1245.437,2202.87
1246.347,2677.00
1247.259,2791.40
1248.168,3051.60
1249.078,2867.00
1249.989,2895.00
1250.899,2436.40
1251.808,2491.70
1252.719,2552.07
1253.628,2490.77
1254.537,2995.33
1255.448,2460.60
1256.357,2459.30
1257.266,2623.00
1258.176,2356.47
1259.085,2341.93
1259.993,2430.30
1260.904,2468.37
1261.812,2455.83
1262.720,3139.50
1263.630,2796.50
1264.538,2467.70
1265.446,2719.90
1266.356,2591.97
1267.263,2897.00
1268.171,2424.10
1269.080,2683.77
1269.988,2791.33
1270.895,2544.70
1271.804,2586.97
1272.711,2807.27
1273.619,2769.03
1274.527,2435.07
1275.434,2735.13
1276.341,2433.00
1277.248,2659.40
1278.156,2913.47
1279.063,2487.63
1279.969,2722.60
1280.877,3508.00
1281.783,2820.97
1282.690,2686.50
1283.598,2595.83
1284.503,2472.47
1285.409,2453.07
1286.317,2981.87
1287.223,3015.17
1288.128,2670.50
1289.036,2510.83
1289.941,2555.57
1290.846,2625.87
1291.751,2432.13
1292.658,2553.03
1293.563,3051.50
1294.468,2643.10
1295.375,2776.50
1296.280,2861.40
1297.184,3331.97
1298.091,2720.10
1298.995,2778.80
1299.900,2995.03
1300.806,2522.03
1301.710,2380.10
1302.614,2211.97
1303.518,2866.03
1304.424,2563.73
1305.327,2816.47
1306.231,2607.07
1307.137,2774.33
1308.040,2682.67
1308.943,2654.07
1309.847,2830.30
1310.752,2801.57
1311.655,2287.23
1312.558,2408.73
1313.463,2564.50
1314.366,2526.43
1315.269,2669.17
1316.171,2615.47
1317.076,2521.47
1317.978,2427.13
1318.881,2242.27
1319.785,2494.10
1320.687,2498.50
1321.589,2245.87
1322.491,2464.00
1323.395,2711.40
1324.297,3184.17
1325.198,2754.83
1326.102,2423.23
1327.004,2432.83
1327.905,3004.43
1328.806,2596.43
1329.709,2688.37
1330.611,2553.57
1331.512,2452.70
1332.413,3060.93
1333.316,2676.13
1334.216,2788.00
1335.117,2377.27
1336.020,2659.97
1336.920,2632.23
1337.821,2490.10
1338.721,2880.37
1339.623,2675.77
1340.523,2579.43
1341.423,2489.83
1342.323,2893.87
1343.225,2706.13
1344.125,2452.17
1345.025,2502.73
1345.924,2292.47
1346.826,2973.53
1347.725,3036.37
1348.624,2845.10
1349.524,2497.17
1350.425,2587.80
1351.324,2707.53
1352.223,2794.80
1353.121,2599.43
1354.022,2823.63
1354.921,3013.27
1355.819,2734.97
1356.718,2668.17
1357.618,2380.13
1358.516,2739.20
1359.415,3004.67
1360.313,2716.90
1361.213,2587.90
1362.111,2922.83
1363.008,3262.73
1363.906,2609.93
1364.806,2637.03
1365.703,2708.80
1366.601,2450.37
1367.498,2466.50
1368.397,2805.13
1369.295,2676.77
1370.192,2460.40
1371.089,2711.23
1371.987,2606.27
1372.884,2879.40
1373.781,2427.17
1374.678,2629.40
1375.574,2470.30
1376.473,2748.93
1377.369,2840.27
1378.265,2468.20
1379.161,2594.03
1380.059,2324.27
1380.955,2736.27
1381.851,2399.17
1382.747,2513.57
1383.643,2558.70
1384.540,2423.47
1385.436,2522.90
1386.331,2690.57
1387.227,2784.97
1388.124,2733.10
1389.019,2434.27
1389.914,2614.13
1390.809,2277.03
1391.704,3041.83
1392.601,2544.33
1393.495,2897.47
1394.390,2791.50
1395.285,2862.87
1396.179,2703.97
1397.075,2600.90
1397.969,2671.97
1398.864,2324.77
1399.758,2581.03
1400.652,2647.50
1401.547,2447.60
1402.441,2411.03
1403.335,2967.23
1404.229,2657.90
1405.122,2698.73
1406.017,2611.20
1406.911,2763.17
1407.804,3023.43
1408.697,2622.63
1409.590,2462.07
1410.485,2784.40
1411.378,2691.37
1412.271,2337.00
1413.163,2694.83
1414.056,2769.27
1414.949,2999.93
1415.843,2672.63
1416.735,2587.10
1417.627,2646.27
1418.520,2601.73
1419.412,2855.13
1420.306,2783.97
1421.197,2906.97
1422.089,2842.70
1422.981,3087.20
1423.873,2804.97
1424.764,2727.67
1425.657,2666.03
1426.549,2762.40
1427.440,2830.87
1428.331,2541.90
1429.222,2331.57
1430.113,2688.90
1431.006,2811.60
1431.897,2535.23
1432.787,2647.50
1433.678,2566.57
1434.568,2452.90
1435.459,2858.07
1436.351,2819.03
1437.241,2772.70
1438.131,2780.90
1439.021,2398.20
1439.911,2601.70
1440.801,2696.57
1441.693,2869.73
1442.583,2669.93
1443.472,2634.33
1444.362,2752.43
1445.251,2583.47
1446.140,2554.97
1447.030,2822.30
1447.921,2827.63
1448.810,2463.77
1449.699,2996.90
1450.588,2673.67
1451.476,2548.67
1452.365,2739.67
1453.254,2540.40
1454.144,2525.23
1455.032,2764.10
1455.921,2383.97
1456.809,2933.00
1457.697,2437.63
1458.585,2582.60
1459.473,2584.30
1460.361,2478.00
1461.251,2713.33
1462.138,2717.73
1463.026,2611.03
1463.913,2874.67
1464.801,2546.67
1465.688,2733.37
1466.575,2668.17
1467.463,3077.93
1468.351,2503.13
1469.238,2604.73
1470.125,2251.50
1471.012,2689.77
1471.899,2728.10
1472.785,2466.57
1473.672,2645.50
1474.558,2854.23
1475.446,2775.63
1476.333,2797.13
1477.219,2459.80
1478.105,2612.40
1478.991,2600.13
1479.877,2935.90
1480.762,2628.60
1481.648,2507.50
1482.534,2772.50
1483.419,2710.67
1484.307,2751.10
1485.192,2609.80
1486.077,2496.20
1486.962,2507.17
1487.847,2393.97
1488.732,2478.63
1489.617,2655.63
1490.502,2908.50
1491.387,2772.83
1492.271,2463.07
1493.156,2488.93
1494.042,2451.07
1494.927,2854.03
1495.811,2543.17
1496.695,2772.17
1497.579,2924.80
1498.463,2647.23
1499.347,2687.57
1500.231,2673.53
1501.114,2713.37
1501.998,2906.93
1502.881,2678.53
1503.765,2935.13
1504.648,3053.30
1505.533,2753.33
1506.417,2649.77
1507.300,2615.70
1508.183,2712.67
1509.066,2145.93
1509.948,2878.13
1510.831,2996.43
1511.714,2447.37
1512.596,2781.23
1513.479,2892.87
1514.361,2851.70
1515.243,2676.57
1516.125,2812.13
1517.008,2916.87
1517.890,2608.07
1518.771,2676.30
1519.655,2854.27
1520.537,2598.10
1521.419,2491.13
1522.300,2697.13
1523.182,2789.93
1524.063,2774.53
1524.944,2932.33
1525.825,2841.07
1526.707,2470.43
1527.588,2440.60
1528.468,2737.83
1529.349,2319.67
1530.230,2580.80
1531.111,2817.30
1531.991,2709.27
1532.872,2374.30
1533.752,2621.60
1534.632,2515.70
1535.513,2507.70
1536.393,2809.03
1537.273,2966.93
1538.153,3283.23
1539.032,2401.97
1539.912,2637.13
1540.792,2661.60
1541.672,2684.30
1542.551,2760.57
1543.430,3233.67
1544.310,2674.43
1545.189,2552.43
1546.068,3067.47
1546.947,2764.63
1547.826,2972.50
1548.705,2650.23
1549.584,2876.90
1550.462,2609.73
1551.341,2811.97
1552.219,2720.70
1553.098,2802.30
1553.976,2858.83
1554.854,3058.67
1555.733,2856.50
1556.611,2583.80
1557.489,2472.77
1558.367,2655.00
1559.244,2812.13
1560.122,2638.53
1561.000,2727.70
1561.877,2947.33
1562.755,2540.47
1563.632,2621.33
1564.509,2907.23
1565.386,3028.67
1566.264,2432.57
1567.141,2283.53
1568.017,2801.93
1568.894,2652.60
1569.771,2707.30
1570.648,2772.23
1571.524,2676.90
1572.401,2426.50
1573.277,2435.87
1574.153,2708.53
1575.029,2528.40
1575.906,3378.97
1576.781,2830.53
1577.657,2611.50
1578.533,2894.77
1579.409,2305.70
1580.285,2621.23
1581.160,3081.30
1582.036,2836.30
1582.911,2490.07
1583.786,2998.70
1584.662,2467.10
1585.537,2629.33
1586.412,2696.33
1587.287,2493.50
1588.160,2840.37
1589.035,2320.47
1589.909,2679.37
1590.784,2632.63
1591.658,2463.30
1592.533,2717.40
1593.407,2676.20
1594.281,2548.00
1595.155,3061.53
1596.029,2593.73
1596.903,2612.00
1597.777,2585.03
1598.651,2921.27
1599.525,2376.83
1600.398,2699.20
1601.272,2625.37
1602.144,3184.67
1603.017,2620.23
1603.890,2889.67
1604.763,2746.73
1605.636,2799.93
1606.509,2373.63
1607.382,2501.20
1608.255,2732.27
1609.128,2855.13
1610.000,2621.03
1610.873,2366.40
1611.746,2566.90
1612.616,2592.80
1613.488,2253.30
1614.361,2662.23
1615.233,2619.73
1616.105,2869.30
1616.977,2572.30
1617.849,2499.53
1618.720,2974.97
1619.592,2963.67
1620.464,2746.73
1621.333,3127.60
1622.205,2655.20
1623.076,2634.43
1623.947,2658.00
1624.818,2899.10
1625.689,2785.10
1626.560,2580.93
1627.431,2710.63
1628.302,3063.40
1629.171,2779.67
1630.042,2971.70
1630.912,3405.80
1631.782,3234.43
1632.653,2472.57
1633.523,2831.57
1634.393,2899.70
1635.263,2547.93
1636.131,2638.20
1637.001,2583.77
1637.871,2299.17
1638.741,2315.97
1639.611,2414.10
1640.480,2785.40
1641.350,2535.43
1642.219,2493.57
1643.087,2176.47
1643.956,3092.57
1644.825,2911.47
1645.694,2873.53
1646.563,2826.47
1647.432,2700.30
1648.299,2693.53
1649.167,2803.70
1650.036,2495.77
1650.904,2882.13
1651.773,2880.60
1652.641,2679.37
1653.509,2849.63
1654.376,2538.83
1655.244,2712.60
1656.112,2721.20
1656.980,2685.97
1657.847,2535.07
1658.715,2845.03
1659.581,2578.53
1660.448,2903.30
1661.316,2185.13
1662.183,2707.13
1663.051,2716.53
1663.918,2703.97
1664.783,2691.13
1665.650,2756.83
1666.517,2836.83
1667.384,2696.67
1668.251,2701.43
1669.115,2892.47
1669.982,2634.73
1670.849,2940.93
1671.715,2650.43
1672.581,2806.53
1673.446,2791.93
1674.312,2700.47
1675.178,3080.63
1676.044,2767.57
1676.910,2753.47
1677.774,2712.03
1678.639,2340.93
1679.505,2670.87
1680.370,2814.60
1681.236,3304.27
1682.099,2628.23
1682.965,2704.53
1683.830,2286.27
1684.695,2499.30
1685.560,2602.83
1686.423,2800.67
1687.288,2800.33
1688.153,2723.07
1689.017,2614.00
1689.880,2750.10
1690.745,2823.00
1691.609,2515.53
1692.473,2827.77
1693.338,2884.43
1694.200,2945.20
1695.064,2688.83
1695.928,2590.50
1696.792,2687.43
1697.654,3168.93
1698.517,2712.43
1699.381,2435.27
1700.245,2339.73
1701.106,2969.37
1701.969,2577.60
1702.833,2822.07
1703.696,2587.60
1704.557,2646.13
1705.420,2545.73
1706.283,2707.90
1707.146,2820.23
1708.007,2481.87
1708.870,2481.30
1709.732,2362.83
1710.595,2581.20
1711.455,2434.53
1712.318,2608.37
1713.180,2939.80
1714.040,2721.03
1714.902,2855.87
1715.764,2680.13
1716.626,2466.67
1717.486,2666.63
1718.348,2934.77
1719.209,4189.87
1720.071,2348.47
1720.930,2429.77
1721.792,2530.07
1722.653,2531.63
1723.512,2581.23
1724.374,2641.60
1725.234,2733.70
1726.095,2707.23
1726.954,2683.00
1727.815,2814.20
1728.676,2672.80
1729.535,2887.87
1730.395,2651.83
1731.256,2592.37
1732.114,2730.73
1732.974,2154.90
1733.834,3031.87
1734.693,2844.93
1735.553,2708.20
1736.413,3087.00
1737.272,2567.80
1738.130,2626.80
1738.990,2759.03
1739.849,2576.50
1740.707,3664.33
1741.566,2721.50
1742.426,2729.93
1743.283,3069.67
1744.142,2574.73
1745.001,2362.23
1745.858,2858.07
1746.717,2760.23
1747.576,2787.93
1748.433,2841.67
1749.292,3272.30
1750.150,3296.27
1751.007,2871.13
1751.865,2888.40
1752.723,2698.70
1753.579,2604.40
1754.438,2897.77
1755.296,2898.30
1756.152,2258.27
1757.010,2376.30
1757.865,2883.83
1758.723,2351.47
1759.581,2993.83
1760.436,2665.93
1761.294,3032.37
1762.151,2672.50
1763.006,2618.03
1763.864,2346.83
1764.721,2880.30
1765.576,2707.10
1766.433,2833.13
1767.288,2592.63
1768.144,2733.33
1769.001,2643.87
1769.856,2773.17
1770.712,2901.83
1771.568,2472.47
1772.423,2589.90
1773.279,2605.03
1774.133,2586.70
1774.989,3078.63
1775.845,3056.27
1776.699,2916.07
1777.555,2669.10
1778.409,3209.97
1779.265,2642.37
1780.120,2639.57
1780.974,2673.60
1781.829,2299.70
1782.682,2747.53
1783.538,2514.10
1784.393,2728.93
1785.246,2576.90
1786.101,2783.67
1786.954,2805.57
1787.808,2892.30
1788.661,2395.17
1789.516,2599.97
1790.370,2628.23
1791.223,2874.67
1792.077,2684.60
1792.930,2774.63
1793.784,2568.77
1794.636,2710.43
1795.490,2651.13
1796.344,2705.07
1797.196,2675.83
1798.049,2833.07
1798.901,2566.63
1799.755,2919.27
1800.606,2493.23
1801.460,3199.80
1802.311,2988.20
1803.165,3087.07
1804.018,3029.40
1804.869,2767.83
1805.722,3144.40
1806.573,2729.90
1807.426,2521.77
1808.276,2676.30
1809.129,2593.80
1809.980,2891.53
1810.832,2973.07
1811.683,2625.37
1812.535,3024.47
1813.385,2626.07
1814.237,2959.87
1815.089,2730.50
1815.940,2972.10
1816.791,2645.27
1817.641,2559.43
1818.493,2840.87
1819.343,2760.47
1820.194,2570.87
1821.044,2800.67
1821.895,2901.90
1822.745,2423.67
1823.596,2588.67
1824.445,3097.10
1825.296,2795.07
1826.145,2654.90
1826.996,2891.37
1827.845,2734.63
1828.695,2753.13
1829.544,2689.93
1830.395,2741.43
1831.243,2619.07
1832.094,2458.13
1832.942,3287.40
1833.792,2819.27
1834.640,2765.33
1835.490,2712.40
1836.338,2761.63
1837.186,2600.23
1838.036,2560.07
1838.884,2694.07
1839.733,3016.63
1840.581,2886.53
1841.430,2817.07
1842.278,3039.70
1843.127,2596.97
1843.974,2387.27
1844.823,3112.77
1845.671,2854.07
1846.519,2711.47
1847.366,2761.27
1848.213,2344.03
1849.062,2522.17
1849.909,2446.27
1850.757,3342.23
1851.604,2810.80
1852.452,2623.67
1853.298,2874.03
1854.146,2752.60
1854.993,2750.07
1855.839,3198.30
1856.687,2808.33
1857.532,2806.77
1858.380,2712.27
1859.226,2777.40
1860.073,2822.03
1860.919,2532.37
1861.765,2602.53
1862.612,2935.17
1863.457,2923.67
1864.304,2662.97
1865.150,2822.10
1865.995,2676.17
1866.842,2821.97
1867.686,2945.17
1868.533,2780.77
1869.378,2766.80
1870.223,2726.20
1871.069,2616.43
1871.914,2740.10
1872.760,2698.20
1873.604,2503.30
1874.448,2846.07
1875.294,2882.53
1876.139,2587.97
1876.984,2828.57
1877.828,2377.67
1878.672,2234.80
1879.518,2584.43
1880.361,2894.60
1881.205,2863.50
1882.050,2515.20
1882.894,3211.47
1883.739,2580.27
1884.582,2469.87
1885.425,2536.23
1886.270,2947.57
1887.113,2453.70
1887.956,2811.93
1888.801,2759.53
1889.644,2523.73
1890.486,2313.67
1891.331,2633.47
1892.173,2756.03
1893.017,2774.23
1893.860,2983.80
1894.702,2999.33
1895.546,2721.10
1896.388,3391.20
1897.230,3067.03
1898.074,2614.73
1898.916,2510.20
1899.757,2543.30
1900.601,3364.50
1901.443,2997.80
1902.284,3000.67
1903.125,3181.77
1903.969,2904.13
1904.810,2945.20
1905.651,2803.17
1906.494,3023.30
1907.335,3150.17
1908.176,2835.73
1909.018,2805.90
1909.859,2685.50
1910.700,2586.73
1911.542,3251.97
1912.383,2781.37
1913.223,2347.97
1914.064,2857.07
1914.906,2974.83
1915.746,3051.30
1916.586,3179.63
1917.428,2708.83
1918.268,2748.60
1919.107,2616.70
1919.947,2479.23
1920.789,2645.70
1921.628,2946.67
1922.468,2713.63
1923.309,2573.17
1924.148,3033.63
1924.988,2798.90
1925.827,2703.37
1926.667,2603.53
1927.507,2770.07
1928.345,2562.80
1929.184,2883.93
1930.025,2541.23
1930.864,2976.17
1931.702,3011.20
1932.541,2625.13
1933.381,2857.33
1934.219,2880.90
1935.057,3012.00
1935.896,2436.30
1936.735,2687.80
1937.573,2618.43
1938.411,2517.40
1939.249,2881.80
1940.089,2608.20
1940.927,2968.90
1941.764,2999.37
1942.602,2653.20
1943.439,2608.67
1944.278,2691.47
1945.115,2657.10
1945.953,2475.83
1946.790,2795.17
1947.628,3064.30
1948.465,2830.57
1949.302,2860.70
1950.139,2844.70
1950.976,2598.33
1951.814,2885.53
1952.651,2776.17
1953.487,2529.27
1954.323,2982.00
1955.160,2704.93
1955.998,3077.80
1956.834,2713.83
1957.670,2797.87
1958.506,2948.23
1959.342,2823.90
1960.177,2770.40
1961.015,2861.83
1961.850,2772.53
1962.686,2777.57
1963.521,2777.03
1964.357,3010.67
1965.192,2515.10
1966.029,2875.27
1966.864,2651.37
1967.699,2945.80
1968.534,2770.23
1969.369,2999.20
1970.204,2693.77
1971.040,2755.80
1971.875,2659.80
1972.709,2773.90
1973.544,2576.97
1974.378,2632.47
1975.212,2846.57
1976.047,2630.23
1976.882,2599.27
1977.716,3126.13
1978.550,2434.83
1979.384,2679.03
1980.218,2694.37
1981.052,2662.10
1981.885,2762.80
1982.719,2735.77
1983.554,2885.20
1984.388,3042.97
1985.221,2803.77
1986.054,2981.70
1986.887,2778.83
1987.720,2576.07
1988.553,3043.43
1989.386,2827.73
1990.219,2869.80
1991.053,3030.47
1991.886,2616.47
1992.719,2926.80
1993.551,2273.43
1994.383,2875.37
1995.216,2658.00
1996.048,2459.80
1996.880,2902.73
1997.712,2608.93
1998.544,2730.87
1999.376,2814.90
2000.208,3017.77
2001.040,3167.43
2001.873,2573.20
2002.705,2572.23
2003.536,2788.73
2004.367,2777.47
2005.199,2780.60
2006.030,2632.50
2006.861,2544.37
2007.692,2758.97
2008.523,2607.83
2009.354,2777.40
2010.185,2551.90
2011.016,2878.37
2011.846,2943.00
2012.677,2688.23
2013.507,3076.23
2014.338,2964.17
2015.168,2680.27
2015.999,3252.10
2016.829,2688.17
2017.659,2960.13
2018.489,3252.03
2019.319,2562.63
2020.149,2917.10
2020.980,2766.07
2021.810,2548.80
2022.639,2634.03
2023.469,2632.30
2024.298,2435.93
2025.128,2371.43
2025.957,2365.23
2026.786,2199.83
2027.615,2389.13
2028.444,2593.67
2029.273,2765.73
2030.102,2362.13
2030.931,2600.83
2031.758,2863.23
2032.586,2535.47
2033.415,2598.60
2034.243,2219.53
2035.072,2020.63
2035.900,2499.93
2036.728,2317.70
2037.556,2363.80
2038.385,2378.93
2039.213,2190.47
2040.040,2180.17
2040.868,2142.77
2041.696,2193.67
2042.524,2215.97
2043.351,2409.40
2044.179,2215.63
2045.006,2005.17
