Date	2021年06月15日火曜日 11時58分05秒
Spectrometers	USB2+H05879
ダーク	使用
リファレンス	使用
積分時間[msec]	10
平均回数	280
ｽﾑｰｼﾞﾝｸﾞ	10
Electrical Dark	USE
ピクセル数	2048
計測モード	吸光度
保存開始波長[nm]	190.664
保存終了波長[nm]	884.878
保存ﾋﾟｯﾁ波長[nm]	全波長

>>>>>>>>>> Data Start <<<<<<<<<<<<
190.664	0.000000
191.040	0.000000
191.415	0.000000
191.791	-1.963381
192.166	0.051092
192.542	-0.674539
192.917	0.000000
193.293	0.608207
193.668	0.448531
194.044	0.347747
194.419	0.000000
194.794	-0.666149
195.170	-0.605296
195.545	-0.529700
195.920	-0.368539
196.296	-0.250972
196.671	-0.059334
197.046	0.060896
197.421	0.056700
197.796	0.052786
198.171	0.043987
198.546	0.098042
198.922	0.134182
199.297	0.189772
199.672	0.189267
200.047	0.185266
200.422	0.213129
200.796	0.236049
201.171	0.236437
201.546	0.223975
201.921	0.224215
202.296	0.226101
202.671	0.244755
203.045	0.266680
203.420	0.273594
203.795	0.268644
204.170	0.254778
204.544	0.237826
204.919	0.242269
205.294	0.267918
205.668	0.296463
206.043	0.318828
206.417	0.305496
206.792	0.299296
207.166	0.272780
207.541	0.281282
207.915	0.304271
208.289	0.300731
208.664	0.319777
209.038	0.342828
209.412	0.354974
209.787	0.386268
210.161	0.399307
210.535	0.381853
210.909	0.375951
211.284	0.397913
211.658	0.396350
212.032	0.422170
212.406	0.430986
212.780	0.435040
213.154	0.392543
213.528	0.366032
213.902	0.372676
214.276	0.383955
214.650	0.391414
215.024	0.403644
215.398	0.415973
215.772	0.404477
216.145	0.413322
216.519	0.392471
216.893	0.370609
217.267	0.357593
217.640	0.332687
218.014	0.332650
218.388	0.333920
218.761	0.327265
219.135	0.310819
219.508	0.323082
219.882	0.310928
220.256	0.314124
220.629	0.317205
221.003	0.336529
221.376	0.331234
221.749	0.325456
222.123	0.334270
222.496	0.323856
222.869	0.323501
223.243	0.322165
223.616	0.336437
223.989	0.314703
224.362	0.324780
224.736	0.323784
225.109	0.342057
225.482	0.350569
225.855	0.356986
226.228	0.373097
226.601	0.378810
226.974	0.380115
227.347	0.372118
227.720	0.373483
228.093	0.380438
228.466	0.372926
228.839	0.377818
229.212	0.384298
229.585	0.378243
229.957	0.394868
230.330	0.412462
230.703	0.420542
231.076	0.412736
231.448	0.397964
231.821	0.453071
232.194	0.450683
232.566	0.449871
232.939	0.439752
233.311	0.442114
233.684	0.405914
234.056	0.387219
234.429	0.391509
234.801	0.396225
235.174	0.380844
235.546	0.371559
235.918	0.347247
236.291	0.351198
236.663	0.336496
237.035	0.338658
237.408	0.333330
237.780	0.323569
238.152	0.307622
238.524	0.286010
238.896	0.291529
239.268	0.297378
239.641	0.275832
240.013	0.278731
240.385	0.291673
240.757	0.293782
241.129	0.293384
241.500	0.302044
241.872	0.309305
242.244	0.307117
242.616	0.311321
242.988	0.322138
243.360	0.327362
243.731	0.342778
244.103	0.343476
244.475	0.352761
244.847	0.363616
245.218	0.385009
245.590	0.398424
245.961	0.406742
246.333	0.426615
246.705	0.407132
247.076	0.424109
247.448	0.421774
247.819	0.406031
248.190	0.402366
248.562	0.397807
248.933	0.393365
249.305	0.396261
249.676	0.401011
250.047	0.405191
250.418	0.399427
250.790	0.391510
251.161	0.385747
251.532	0.379249
251.903	0.385597
252.274	0.408601
252.645	0.402541
253.016	0.400561
253.387	0.361357
253.758	0.346332
254.129	0.341698
254.500	0.342756
254.871	0.326881
255.242	0.321329
255.613	0.320906
255.984	0.309562
256.355	0.324802
256.725	0.328443
257.096	0.336667
257.467	0.332875
257.838	0.335314
258.208	0.339037
258.579	0.342491
258.949	0.352559
259.320	0.365731
259.690	0.360041
260.061	0.337507
260.431	0.338649
260.802	0.329830
261.172	0.354559
261.543	0.360193
261.913	0.367863
262.283	0.371979
262.654	0.367432
263.024	0.364765
263.394	0.378024
263.764	0.395781
264.135	0.385579
264.505	0.387808
264.875	0.383933
265.245	0.382632
265.615	0.398160
265.985	0.400407
266.355	0.403672
266.725	0.393304
267.095	0.387639
267.465	0.388942
267.835	0.387153
268.205	0.370600
268.575	0.381305
268.944	0.383820
269.314	0.400377
269.684	0.399525
270.054	0.407386
270.423	0.425824
270.793	0.431911
271.163	0.430149
271.532	0.424391
271.902	0.418522
272.271	0.422901
272.641	0.425099
273.010	0.429843
273.380	0.407100
273.749	0.407960
274.119	0.398768
274.488	0.410258
274.857	0.423320
275.227	0.413564
275.596	0.417368
275.965	0.429461
276.335	0.416017
276.704	0.412655
277.073	0.415662
277.442	0.403335
277.811	0.392833
278.180	0.384388
278.549	0.385607
278.918	0.374701
279.287	0.376846
279.656	0.386933
280.025	0.381632
280.394	0.367497
280.763	0.368194
281.132	0.380824
281.501	0.385494
281.869	0.387441
282.238	0.388988
282.607	0.373079
282.976	0.380224
283.344	0.389070
283.713	0.392670
284.081	0.409656
284.450	0.406237
284.819	0.398475
285.187	0.416480
285.556	0.408635
285.924	0.407437
286.292	0.413710
286.661	0.430831
287.029	0.421336
287.398	0.412156
287.766	0.406825
288.134	0.415076
288.502	0.422087
288.871	0.416250
289.239	0.411261
289.607	0.419350
289.975	0.424294
290.343	0.437123
290.711	0.446016
291.079	0.444405
291.447	0.432026
291.815	0.416555
292.183	0.418571
292.551	0.417423
292.919	0.421786
293.287	0.431087
293.655	0.435653
294.022	0.430855
294.390	0.437588
294.758	0.445517
295.126	0.453560
295.493	0.455372
295.861	0.467210
296.229	0.443225
296.596	0.453046
296.964	0.460943
297.331	0.446608
297.699	0.443982
298.066	0.443153
298.434	0.437456
298.801	0.445804
299.168	0.468099
299.536	0.477078
299.903	0.478147
300.270	0.493740
300.638	0.495539
301.005	0.514865
301.372	0.517641
301.739	0.518376
302.106	0.515425
302.473	0.516941
302.840	0.539987
303.207	0.577401
303.574	0.597158
303.941	0.616349
304.308	0.615457
304.675	0.625453
305.042	0.663931
305.409	0.683812
305.776	0.696914
306.143	0.726306
306.509	0.731987
306.876	0.752229
307.243	0.779600
307.610	0.795948
307.976	0.797388
308.343	0.823052
308.709	0.848827
309.076	0.885277
309.442	0.926791
309.809	0.951254
310.175	0.997000
310.542	1.004798
310.908	1.007783
311.275	1.013446
311.641	1.045982
312.007	1.068296
312.373	1.100719
312.740	1.113406
313.106	1.139336
313.472	1.172005
313.838	1.197689
314.204	1.230012
314.570	1.242987
314.936	1.263925
315.302	1.285527
315.668	1.314381
316.034	1.339381
316.400	1.370900
316.766	1.389550
317.132	1.412566
317.498	1.426823
317.864	1.426189
318.230	1.439316
318.595	1.467055
318.961	1.487137
319.327	1.501617
319.692	1.514643
320.058	1.511951
320.424	1.529848
320.789	1.542349
321.155	1.556679
321.520	1.563476
321.886	1.577960
322.251	1.585530
322.616	1.594500
322.982	1.599799
323.347	1.601467
323.712	1.607506
324.078	1.610543
324.443	1.613147
324.808	1.617966
325.173	1.627637
325.539	1.635223
325.904	1.638803
326.269	1.637726
326.634	1.641123
326.999	1.646062
327.364	1.649040
327.729	1.654731
328.094	1.658040
328.459	1.661041
328.823	1.657862
329.188	1.660084
329.553	1.654824
329.918	1.659317
330.283	1.660237
330.647	1.664412
331.012	1.673372
331.377	1.673392
331.741	1.670376
332.106	1.673165
332.470	1.671512
332.835	1.670998
333.199	1.671102
333.564	1.676808
333.928	1.678505
334.293	1.680816
334.657	1.678304
335.021	1.682563
335.386	1.684092
335.750	1.681460
336.114	1.680846
336.478	1.685704
336.843	1.685579
337.207	1.686189
337.571	1.687162
337.935	1.687207
338.299	1.685848
338.663	1.680626
339.027	1.681895
339.391	1.683550
339.755	1.681789
340.119	1.680147
340.483	1.679855
340.846	1.682924
341.210	1.682202
341.574	1.681943
341.938	1.681544
342.301	1.683977
342.665	1.683316
343.029	1.682197
343.392	1.684349
343.756	1.682848
344.119	1.678982
344.483	1.679179
344.846	1.679603
345.210	1.680851
345.573	1.680594
345.937	1.681719
346.300	1.683748
346.663	1.682430
347.027	1.682943
347.390	1.683132
347.753	1.683911
348.116	1.684726
348.479	1.684227
348.843	1.682694
349.206	1.682053
349.569	1.680835
349.932	1.680161
350.295	1.678747
350.658	1.680443
351.021	1.681117
351.383	1.683158
351.746	1.683755
352.109	1.683866
352.472	1.684805
352.835	1.684556
353.197	1.685237
353.560	1.686412
353.923	1.686270
354.285	1.686736
354.648	1.686327
355.011	1.686925
355.373	1.688728
355.736	1.689005
356.098	1.689127
356.461	1.691351
356.823	1.689893
357.185	1.690899
357.548	1.691545
357.910	1.692247
358.272	1.691397
358.635	1.689996
358.997	1.689677
359.359	1.692780
359.721	1.693383
360.083	1.694196
360.445	1.694194
360.807	1.693663
361.169	1.693866
361.531	1.695084
361.893	1.696509
362.255	1.697640
362.617	1.699192
362.979	1.698013
363.341	1.697889
363.703	1.698558
364.064	1.699560
364.426	1.702794
364.788	1.703364
365.149	1.703758
365.511	1.704469
365.873	1.705016
366.234	1.705424
366.596	1.707047
366.957	1.707053
367.319	1.708172
367.680	1.709146
368.042	1.708362
368.403	1.708897
368.764	1.710115
369.126	1.709202
369.487	1.709724
369.848	1.710035
370.209	1.711099
370.570	1.712935
370.931	1.714541
371.293	1.714413
371.654	1.714014
372.015	1.715421
372.376	1.716841
372.737	1.718149
373.098	1.719132
373.458	1.720056
373.819	1.722023
374.180	1.723195
374.541	1.723632
374.902	1.724897
375.263	1.725642
375.623	1.726687
375.984	1.729989
376.345	1.730315
376.705	1.733635
377.066	1.734767
377.426	1.734706
377.787	1.734736
378.147	1.734677
378.508	1.734380
378.868	1.735144
379.228	1.736085
379.589	1.735229
379.949	1.735252
380.309	1.736095
380.670	1.736254
381.030	1.736679
381.390	1.737285
381.750	1.735642
382.110	1.735434
382.470	1.735434
382.830	1.736639
383.190	1.738219
383.550	1.737207
383.910	1.737937
384.270	1.737315
384.630	1.737464
384.990	1.738608
385.350	1.738816
385.709	1.738544
386.069	1.740129
386.429	1.740223
386.788	1.740496
387.148	1.742775
387.508	1.744292
387.867	1.744346
388.227	1.745241
388.586	1.746682
388.946	1.747154
389.305	1.748269
389.665	1.748878
390.024	1.749480
390.383	1.749024
390.743	1.748740
391.102	1.748723
391.461	1.748605
391.820	1.748775
392.179	1.748388
392.539	1.749067
392.898	1.750461
393.257	1.752344
393.616	1.753778
393.975	1.754749
394.334	1.755610
394.693	1.754486
395.051	1.753840
395.410	1.753786
395.769	1.754016
396.128	1.753869
396.487	1.753540
396.845	1.753981
397.204	1.754162
397.563	1.753273
397.921	1.752536
398.280	1.752559
398.638	1.751366
398.997	1.750593
399.355	1.749450
399.714	1.749645
400.072	1.748181
400.431	1.745799
400.789	1.744477
401.147	1.743057
401.506	1.741169
401.864	1.738805
402.222	1.737365
402.580	1.735586
402.938	1.734207
403.297	1.732364
403.655	1.730993
404.013	1.730231
404.371	1.728592
404.729	1.726264
405.087	1.725178
405.444	1.724358
405.802	1.722419
406.160	1.723141
406.518	1.722428
406.876	1.721461
407.233	1.719918
407.591	1.719377
407.949	1.718712
408.306	1.718037
408.664	1.716372
409.022	1.716245
409.379	1.715594
409.737	1.714549
410.094	1.713952
410.451	1.713686
410.809	1.713082
411.166	1.711537
411.523	1.711524
411.881	1.710915
412.238	1.710428
412.595	1.708333
412.952	1.707019
413.310	1.705457
413.667	1.704783
414.024	1.704042
414.381	1.703169
414.738	1.701658
415.095	1.699664
415.452	1.698420
415.809	1.696012
416.165	1.694596
416.522	1.693427
416.879	1.692003
417.236	1.690281
417.593	1.688156
417.949	1.685935
418.306	1.684366
418.663	1.684948
419.019	1.682350
419.376	1.680359
419.732	1.678628
420.089	1.678106
420.445	1.675795
420.802	1.675782
421.158	1.673218
421.514	1.670737
421.871	1.668932
422.227	1.667115
422.583	1.666115
422.939	1.663953
423.295	1.662825
423.652	1.660580
424.008	1.657910
424.364	1.655810
424.720	1.654554
425.076	1.654406
425.432	1.652503
425.788	1.650327
426.143	1.646474
426.499	1.644258
426.855	1.642692
427.211	1.639939
427.567	1.637118
427.922	1.636008
428.278	1.633106
428.634	1.631861
428.989	1.630148
429.345	1.628086
429.700	1.626371
430.056	1.624552
430.411	1.623349
430.767	1.621223
431.122	1.619309
431.478	1.617805
431.833	1.615458
432.188	1.612533
432.543	1.609647
432.899	1.606633
433.254	1.604036
433.609	1.601731
433.964	1.599314
434.319	1.595795
434.674	1.593591
435.029	1.590746
435.384	1.587378
435.739	1.584048
436.094	1.581143
436.449	1.578429
436.804	1.575727
437.158	1.573006
437.513	1.569451
437.868	1.565766
438.223	1.562751
438.577	1.559100
438.932	1.556256
439.287	1.553355
439.641	1.550493
439.996	1.547358
440.350	1.544624
440.704	1.542182
441.059	1.538753
441.413	1.534884
441.768	1.531819
442.122	1.528960
442.476	1.526160
442.830	1.523214
443.185	1.520754
443.539	1.517244
443.893	1.514230
444.247	1.510726
444.601	1.507249
444.955	1.504018
445.309	1.500455
445.663	1.496667
446.017	1.493438
446.371	1.489328
446.724	1.485470
447.078	1.481815
447.432	1.477897
447.786	1.474459
448.139	1.469896
448.493	1.466339
448.847	1.462913
449.200	1.459305
449.554	1.455237
449.907	1.451430
450.261	1.446930
450.614	1.443080
450.968	1.438680
451.321	1.434124
451.674	1.430416
452.027	1.426221
452.381	1.422092
452.734	1.418261
453.087	1.414712
453.440	1.410052
453.793	1.405871
454.146	1.402162
454.499	1.398531
454.852	1.394302
455.205	1.390200
455.558	1.386615
455.911	1.382390
456.264	1.377948
456.617	1.373913
456.970	1.370158
457.322	1.366602
457.675	1.363527
458.028	1.359560
458.380	1.356345
458.733	1.353058
459.086	1.349414
459.438	1.345894
459.791	1.342206
460.143	1.338735
460.496	1.335055
460.848	1.331639
461.200	1.328021
461.553	1.323949
461.905	1.320095
462.257	1.316174
462.609	1.312536
462.961	1.308636
463.314	1.305179
463.666	1.301940
464.018	1.298188
464.370	1.294936
464.722	1.291220
465.074	1.287320
465.426	1.284475
465.777	1.281274
466.129	1.278153
466.481	1.275210
466.833	1.272267
467.184	1.269268
467.536	1.265682
467.888	1.262089
468.239	1.259091
468.591	1.255266
468.943	1.251842
469.294	1.247714
469.646	1.244114
469.997	1.239965
470.348	1.236553
470.700	1.233210
471.051	1.229914
471.402	1.226650
471.754	1.223190
472.105	1.220160
472.456	1.217539
472.807	1.214067
473.158	1.211148
473.509	1.208338
473.860	1.205136
474.211	1.202160
474.562	1.199595
474.913	1.196889
475.264	1.194088
475.615	1.191181
475.966	1.188682
476.316	1.185809
476.667	1.183312
477.018	1.180783
477.368	1.178205
477.719	1.175472
478.070	1.172567
478.420	1.170032
478.771	1.167165
479.121	1.164514
479.472	1.161909
479.822	1.159162
480.172	1.156786
480.523	1.154167
480.873	1.151484
481.223	1.148910
481.573	1.146059
481.924	1.142989
482.274	1.139858
482.624	1.136982
482.974	1.134260
483.324	1.131529
483.674	1.129247
484.024	1.127069
484.374	1.125184
484.724	1.123447
485.073	1.121675
485.423	1.120040
485.773	1.118219
486.123	1.116644
486.472	1.114996
486.822	1.113202
487.172	1.111521
487.521	1.109672
487.871	1.107909
488.220	1.105916
488.570	1.103569
488.919	1.100918
489.268	1.097823
489.618	1.094789
489.967	1.091308
490.316	1.087520
490.666	1.084040
491.015	1.080761
491.364	1.077666
491.713	1.074670
492.062	1.071850
492.411	1.069146
492.760	1.066496
493.109	1.063846
493.458	1.061273
493.807	1.058615
494.156	1.056120
494.505	1.053464
494.853	1.050908
495.202	1.048160
495.551	1.045484
495.900	1.042950
496.248	1.040245
496.597	1.037696
496.945	1.035078
497.294	1.032560
497.642	1.030052
497.991	1.027166
498.339	1.024427
498.688	1.021990
499.036	1.019480
499.384	1.016871
499.732	1.014288
500.081	1.011729
500.429	1.009076
500.777	1.006458
501.125	1.003996
501.473	1.001497
501.821	0.999183
502.169	0.996770
502.517	0.994498
502.865	0.992312
503.213	0.989910
503.561	0.987591
503.908	0.985287
504.256	0.982983
504.604	0.980600
504.952	0.978217
505.299	0.976148
505.647	0.973858
505.994	0.971499
506.342	0.969152
506.689	0.966921
507.037	0.964776
507.384	0.962462
507.732	0.960364
508.079	0.958301
508.426	0.956000
508.774	0.953856
509.121	0.951670
509.468	0.949720
509.815	0.947597
510.162	0.945342
510.509	0.943349
510.856	0.941323
511.203	0.939290
511.550	0.937261
511.897	0.935271
512.244	0.933419
512.591	0.931317
512.938	0.929365
513.284	0.927433
513.631	0.925465
513.978	0.923491
514.324	0.921545
514.671	0.919726
515.018	0.917830
515.364	0.915911
515.711	0.914076
516.057	0.912121
516.403	0.910266
516.750	0.908282
517.096	0.906457
517.443	0.904570
517.789	0.902751
518.135	0.901019
518.481	0.899280
518.827	0.897444
519.173	0.895689
519.519	0.893831
519.865	0.891999
520.211	0.890215
520.557	0.888260
520.903	0.886392
521.249	0.884686
521.595	0.882810
521.941	0.880909
522.287	0.878876
522.632	0.876920
522.978	0.875181
523.324	0.873357
523.669	0.871387
524.015	0.869389
524.360	0.867412
524.706	0.865598
525.051	0.863831
525.397	0.861929
525.742	0.860111
526.087	0.858401
526.433	0.856498
526.778	0.854722
527.123	0.853122
527.468	0.851309
527.813	0.849571
528.158	0.847825
528.504	0.846052
528.849	0.844119
529.193	0.842306
529.538	0.840547
529.883	0.838615
530.228	0.836490
530.573	0.834501
530.918	0.832501
531.263	0.830614
531.607	0.828624
531.952	0.826701
532.296	0.824633
532.641	0.822704
532.986	0.820596
533.330	0.818502
533.675	0.816557
534.019	0.814357
534.363	0.812229
534.708	0.810123
535.052	0.808044
535.396	0.805988
535.741	0.803743
536.085	0.801572
536.429	0.799333
536.773	0.797175
537.117	0.794843
537.461	0.792479
537.805	0.790056
538.149	0.787590
538.493	0.785000
538.837	0.782583
539.181	0.780124
539.524	0.777553
539.868	0.774994
540.212	0.772441
540.556	0.769862
540.899	0.767311
541.243	0.764794
541.586	0.762168
541.930	0.759550
542.273	0.756903
542.617	0.754259
542.960	0.751570
543.304	0.748807
543.647	0.745969
543.990	0.743098
544.333	0.740226
544.677	0.737382
545.020	0.734470
545.363	0.731495
545.706	0.728523
546.049	0.725550
546.392	0.722669
546.735	0.719780
547.078	0.716778
547.421	0.713826
547.764	0.710811
548.106	0.707535
548.449	0.704193
548.792	0.700953
549.135	0.697766
549.477	0.694503
549.820	0.691111
550.162	0.687747
550.505	0.684442
550.847	0.681080
551.190	0.677515
551.532	0.673971
551.875	0.670180
552.217	0.666367
552.559	0.662669
552.901	0.659048
553.244	0.655429
553.586	0.651774
553.928	0.648309
554.270	0.644941
554.612	0.641550
554.954	0.638112
555.296	0.634714
555.638	0.631376
555.980	0.627709
556.322	0.623823
556.663	0.619836
557.005	0.615893
557.347	0.612045
557.689	0.608108
558.030	0.604168
558.372	0.600266
558.713	0.596318
559.055	0.592592
559.396	0.588786
559.738	0.584893
560.079	0.580974
560.421	0.577093
560.762	0.573297
561.103	0.569472
561.444	0.565768
561.786	0.562101
562.127	0.558535
562.468	0.554880
562.809	0.551109
563.150	0.547313
563.491	0.543542
563.832	0.539633
564.173	0.535618
564.514	0.531458
564.855	0.527281
565.195	0.523024
565.536	0.518781
565.877	0.514560
566.218	0.510345
566.558	0.506296
566.899	0.502319
567.239	0.498490
567.580	0.494820
567.920	0.491341
568.261	0.488132
568.601	0.485044
568.941	0.482081
569.282	0.479235
569.622	0.476513
569.962	0.473853
570.302	0.471249
570.643	0.468606
570.983	0.466039
571.323	0.463529
571.663	0.461090
572.003	0.458652
572.343	0.456206
572.683	0.453747
573.022	0.451299
573.362	0.448793
573.702	0.446152
574.042	0.443546
574.381	0.440951
574.721	0.438417
575.061	0.435942
575.400	0.433571
575.740	0.431266
576.079	0.429033
576.419	0.426825
576.758	0.424605
577.097	0.422281
577.437	0.419805
577.776	0.417289
578.115	0.414769
578.454	0.412333
578.794	0.409986
579.133	0.407819
579.472	0.405862
579.811	0.404021
580.150	0.402230
580.489	0.400435
580.828	0.398624
581.167	0.396803
581.505	0.394945
581.844	0.393078
582.183	0.391207
582.522	0.389393
582.860	0.387629
583.199	0.385942
583.538	0.384259
583.876	0.382530
584.215	0.380769
584.553	0.378986
584.891	0.377203
585.230	0.375421
585.568	0.373625
585.906	0.371901
586.245	0.370269
586.583	0.368733
586.921	0.367309
587.259	0.365918
587.597	0.364545
587.935	0.363127
588.273	0.361604
588.611	0.359988
588.949	0.358296
589.287	0.356591
589.625	0.354880
589.963	0.353180
590.300	0.351460
590.638	0.349773
590.976	0.348103
591.313	0.346446
591.651	0.344848
591.989	0.343316
592.326	0.341808
592.664	0.340457
593.001	0.339157
593.338	0.337927
593.676	0.336786
594.013	0.335733
594.350	0.334713
594.687	0.333656
595.025	0.332608
595.362	0.331493
595.699	0.330358
596.036	0.329186
596.373	0.327969
596.710	0.326714
597.047	0.325502
597.384	0.324314
597.720	0.323194
598.057	0.322085
598.394	0.320981
598.731	0.319910
599.067	0.318870
599.404	0.317897
599.741	0.316891
600.077	0.315948
600.414	0.315044
600.750	0.314162
601.087	0.313241
601.423	0.312280
601.759	0.311394
602.096	0.310486
602.432	0.309652
602.768	0.308745
603.104	0.307845
603.440	0.306945
603.776	0.306103
604.112	0.305273
604.448	0.304483
604.784	0.303679
605.120	0.302912
605.456	0.302220
605.792	0.301489
606.128	0.300717
606.463	0.299983
606.799	0.299254
607.135	0.298488
607.470	0.297757
607.806	0.296975
608.142	0.296245
608.477	0.295537
608.812	0.294771
609.148	0.294044
609.483	0.293254
609.819	0.292535
610.154	0.291832
610.489	0.291166
610.824	0.290501
611.159	0.289800
611.494	0.289113
611.830	0.288454
612.165	0.287855
612.500	0.287186
612.834	0.286543
613.169	0.285945
613.504	0.285284
613.839	0.284606
614.174	0.283964
614.509	0.283336
614.843	0.282735
615.178	0.282157
615.512	0.281641
615.847	0.281131
616.182	0.280598
616.516	0.280032
616.850	0.279490
617.185	0.278964
617.519	0.278418
617.853	0.277836
618.188	0.277286
618.522	0.276762
618.856	0.276273
619.190	0.275712
619.524	0.275154
619.858	0.274633
620.192	0.274053
620.526	0.273506
620.860	0.272996
621.194	0.272500
621.528	0.271988
621.862	0.271523
622.195	0.271031
622.529	0.270500
622.863	0.270030
623.196	0.269555
623.530	0.269150
623.864	0.268685
624.197	0.268207
624.530	0.267799
624.864	0.267414
625.197	0.267000
625.531	0.266535
625.864	0.266058
626.197	0.265544
626.530	0.265107
626.863	0.264601
627.196	0.264140
627.529	0.263666
627.862	0.263179
628.195	0.262663
628.528	0.262190
628.861	0.261756
629.194	0.261336
629.527	0.260862
629.860	0.260428
630.192	0.259990
630.525	0.259505
630.858	0.259085
631.190	0.258695
631.523	0.258214
631.855	0.257714
632.188	0.257297
632.520	0.256826
632.852	0.256264
633.185	0.255792
633.517	0.255325
633.849	0.254898
634.182	0.254474
634.514	0.254114
634.846	0.253802
635.178	0.253507
635.510	0.253227
635.842	0.252786
636.174	0.252397
636.506	0.252134
636.837	0.251721
637.169	0.251318
637.501	0.250934
637.833	0.250640
638.164	0.250212
638.496	0.249861
638.828	0.249412
639.159	0.248890
639.491	0.248457
639.822	0.248125
640.154	0.247696
640.485	0.247256
640.816	0.246824
641.147	0.246411
641.479	0.245962
641.810	0.245549
642.141	0.245118
642.472	0.244649
642.803	0.244299
643.134	0.243875
643.465	0.243531
643.796	0.243272
644.127	0.243106
644.458	0.242912
644.789	0.242529
645.119	0.242405
645.450	0.242104
645.781	0.241857
646.111	0.241682
646.442	0.241503
646.773	0.241170
647.103	0.240863
647.433	0.240537
647.764	0.240292
648.094	0.240060
648.425	0.239906
648.755	0.239730
649.085	0.239462
649.415	0.239224
649.745	0.239140
650.075	0.238982
650.405	0.238717
650.735	0.239026
651.065	0.242149
651.395	0.241305
651.725	0.224961
652.055	0.182131
652.385	0.141133
652.715	0.111384
653.044	0.091385
653.374	0.077035
653.704	0.076879
654.033	0.089823
654.363	0.097563
654.692	0.102077
655.022	0.104859
655.351	0.106655
655.680	0.107770
656.010	0.108405
656.339	0.108688
656.668	0.108756
656.997	0.108712
657.326	0.108594
657.655	0.108255
657.984	0.105992
658.313	0.099171
658.642	0.090310
658.971	0.091596
659.300	0.102933
659.629	0.122123
659.958	0.149466
660.286	0.191696
660.615	0.228315
660.944	0.229022
661.272	0.229566
661.601	0.231196
661.929	0.232401
662.258	0.232627
662.586	0.232055
662.915	0.230903
663.243	0.230001
663.571	0.229163
663.899	0.228712
664.228	0.228345
664.556	0.228123
664.884	0.227852
665.212	0.227547
665.540	0.227246
665.868	0.227125
666.196	0.226932
666.524	0.226530
666.852	0.226327
667.179	0.226142
667.507	0.226019
667.835	0.225805
668.162	0.225490
668.490	0.225297
668.818	0.225144
669.145	0.224883
669.473	0.224604
669.800	0.224413
670.127	0.224146
670.455	0.223928
670.782	0.223781
671.109	0.223525
671.436	0.223380
671.764	0.223328
672.091	0.223247
672.418	0.223131
672.745	0.222905
673.072	0.222793
673.399	0.222698
673.726	0.222543
674.053	0.222358
674.379	0.222153
674.706	0.221961
675.033	0.221817
675.359	0.221526
675.686	0.221272
676.013	0.221104
676.339	0.220895
676.666	0.220655
676.992	0.220447
677.318	0.220344
677.645	0.220014
677.971	0.219819
678.297	0.219648
678.624	0.219441
678.950	0.219186
679.276	0.219006
679.602	0.218820
679.928	0.218608
680.254	0.218494
680.580	0.218321
680.906	0.218170
681.232	0.217958
681.558	0.217747
681.883	0.217543
682.209	0.217363
682.535	0.217131
682.860	0.216842
683.186	0.216634
683.511	0.216380
683.837	0.216153
684.162	0.215904
684.488	0.215710
684.813	0.215521
685.138	0.215228
685.464	0.215027
685.789	0.214810
686.114	0.214625
686.439	0.214500
686.764	0.214298
687.089	0.214096
687.414	0.213817
687.739	0.213562
688.064	0.213306
688.389	0.213050
688.714	0.212703
689.039	0.212394
689.363	0.212039
689.688	0.211812
690.013	0.211546
690.337	0.211384
690.662	0.211212
690.986	0.211094
691.311	0.210957
691.635	0.210754
691.959	0.210615
692.284	0.210398
692.608	0.210284
692.932	0.210098
693.256	0.209892
693.580	0.209753
693.904	0.209517
694.228	0.209433
694.552	0.209175
694.876	0.208936
695.200	0.208523
695.524	0.208199
695.848	0.207877
696.172	0.207682
696.495	0.207374
696.819	0.207146
697.143	0.206762
697.466	0.206536
697.790	0.206175
698.113	0.205909
698.437	0.205643
698.760	0.205383
699.083	0.205128
699.407	0.204785
699.730	0.204512
700.053	0.204250
700.376	0.203880
700.699	0.203489
701.022	0.203063
701.345	0.202667
701.668	0.202299
701.991	0.202262
702.314	0.202098
702.637	0.201953
702.960	0.201644
703.283	0.201359
703.605	0.201086
703.928	0.200868
704.251	0.200604
704.573	0.200360
704.896	0.200109
705.218	0.199830
705.540	0.199610
705.863	0.199386
706.185	0.199190
706.507	0.198882
706.830	0.198570
707.152	0.198277
707.474	0.198078
707.796	0.197776
708.118	0.197552
708.440	0.197328
708.762	0.197048
709.084	0.196786
709.406	0.196545
709.728	0.196274
710.049	0.196049
710.371	0.195668
710.693	0.195456
711.014	0.195068
711.336	0.194739
711.658	0.194439
711.979	0.194207
712.301	0.193864
712.622	0.193571
712.943	0.193189
713.265	0.192921
713.586	0.192580
713.907	0.192386
714.228	0.192216
714.549	0.191992
714.870	0.191898
715.191	0.191670
715.512	0.191382
715.833	0.191035
716.154	0.190685
716.475	0.190433
716.796	0.190081
717.117	0.189788
717.437	0.189284
717.758	0.188925
718.078	0.188649
718.399	0.188223
718.719	0.187914
719.040	0.187627
719.360	0.187313
719.681	0.187114
720.001	0.186926
720.321	0.186748
720.642	0.186491
720.962	0.186152
721.282	0.185993
721.602	0.185703
721.922	0.185472
722.242	0.185298
722.562	0.185106
722.882	0.184852
723.202	0.184676
723.521	0.184475
723.841	0.184261
724.161	0.184146
724.481	0.183981
724.800	0.183730
725.120	0.183684
725.439	0.183534
725.759	0.183354
726.078	0.183242
726.398	0.183106
726.717	0.182944
727.036	0.182813
727.355	0.182656
727.675	0.182467
727.994	0.182274
728.313	0.182033
728.632	0.181884
728.951	0.181578
729.270	0.181353
729.589	0.181166
729.908	0.180880
730.226	0.180674
730.545	0.180437
730.864	0.180141
731.182	0.179860
731.501	0.179615
731.820	0.179315
732.138	0.179004
732.457	0.178713
732.775	0.178439
733.093	0.178158
733.412	0.177858
733.730	0.177547
734.048	0.177244
734.367	0.176988
734.685	0.176725
735.003	0.176417
735.321	0.176075
735.639	0.175833
735.957	0.175592
736.275	0.175281
736.593	0.175049
736.910	0.174713
737.228	0.174406
737.546	0.174155
737.863	0.173945
738.181	0.173607
738.499	0.173271
738.816	0.173042
739.134	0.172790
739.451	0.172479
739.768	0.172221
740.086	0.171959
740.403	0.171679
740.720	0.171457
741.038	0.171163
741.355	0.170831
741.672	0.170517
741.989	0.170278
742.306	0.169974
742.623	0.169693
742.940	0.169448
743.257	0.169047
743.573	0.168787
743.890	0.168632
744.207	0.168384
744.523	0.168071
744.840	0.167862
745.157	0.167664
745.473	0.167390
745.790	0.167303
746.106	0.167151
746.422	0.167034
746.739	0.166869
747.055	0.166763
747.371	0.166509
747.687	0.166334
748.004	0.166131
748.320	0.165963
748.636	0.165804
748.952	0.165742
749.268	0.165751
749.584	0.165662
749.899	0.165544
750.215	0.165398
750.531	0.165261
750.847	0.165255
751.162	0.165212
751.478	0.165178
751.793	0.165091
752.109	0.164961
752.424	0.164813
752.740	0.164743
753.055	0.164687
753.370	0.164594
753.686	0.164620
754.001	0.164656
754.316	0.164631
754.631	0.164578
754.946	0.164533
755.261	0.164412
755.576	0.164272
755.891	0.164043
756.206	0.163893
756.521	0.163782
756.836	0.163708
757.150	0.163547
757.465	0.163330
757.780	0.163186
758.094	0.163067
758.409	0.162950
758.723	0.162878
759.038	0.162725
759.352	0.162547
759.667	0.162350
759.981	0.162219
760.295	0.162026
760.609	0.161861
760.923	0.161751
761.238	0.161567
761.552	0.161380
761.866	0.161240
762.180	0.161016
762.493	0.160808
762.807	0.160518
763.121	0.160331
763.435	0.160145
763.749	0.159987
764.062	0.159941
764.376	0.159842
764.689	0.159775
765.003	0.159718
765.316	0.159668
765.630	0.159758
765.943	0.159695
766.257	0.159646
766.570	0.159480
766.883	0.159202
767.196	0.158944
767.509	0.158540
767.822	0.158293
768.135	0.158063
768.448	0.157793
768.761	0.157555
769.074	0.157375
769.387	0.157349
769.700	0.157227
770.013	0.157091
770.325	0.156957
770.638	0.156743
770.950	0.156440
771.263	0.156156
771.575	0.155911
771.888	0.155528
772.200	0.155075
772.513	0.154759
772.825	0.154422
773.137	0.154097
773.449	0.153906
773.761	0.153603
774.074	0.153529
774.386	0.153419
774.698	0.153276
775.010	0.153229
775.321	0.153269
775.633	0.153209
775.945	0.153054
776.257	0.152943
776.568	0.152820
776.880	0.152797
777.192	0.152650
777.503	0.152578
777.815	0.152611
778.126	0.152644
778.438	0.152712
778.749	0.152690
779.060	0.152611
779.372	0.152543
779.683	0.152532
779.994	0.152414
780.305	0.152282
780.616	0.152173
780.927	0.152110
781.238	0.151939
781.549	0.151736
781.860	0.151620
782.171	0.151573
782.481	0.151575
782.792	0.151481
783.103	0.151446
783.413	0.151414
783.724	0.151331
784.034	0.151421
784.345	0.151272
784.655	0.151128
784.966	0.150974
785.276	0.150988
785.586	0.150976
785.896	0.150763
786.207	0.150653
786.517	0.150680
786.827	0.150775
787.137	0.150780
787.447	0.150736
787.757	0.150915
788.066	0.150952
788.376	0.150972
788.686	0.150985
788.996	0.150879
789.305	0.150892
789.615	0.150981
789.925	0.150932
790.234	0.150981
790.544	0.151012
790.853	0.151076
791.162	0.151045
791.472	0.151021
791.781	0.150867
792.090	0.150720
792.399	0.150669
792.708	0.150567
793.017	0.150436
793.326	0.150267
793.635	0.150158
793.944	0.150023
794.253	0.149825
794.562	0.149781
794.871	0.149722
795.179	0.149572
795.488	0.149529
795.797	0.149469
796.105	0.149131
796.414	0.148951
796.722	0.148809
797.031	0.148604
797.339	0.148251
797.647	0.148012
797.956	0.147898
798.264	0.147718
798.572	0.147772
798.880	0.147884
799.188	0.147851
799.496	0.147787
799.804	0.147797
800.112	0.147741
800.420	0.147715
800.728	0.147636
801.035	0.147530
801.343	0.147333
801.651	0.147257
801.958	0.147228
802.266	0.147113
802.573	0.147330
802.881	0.147406
803.188	0.147366
803.496	0.147410
803.803	0.147577
804.110	0.147392
804.417	0.147250
804.724	0.147145
805.032	0.146953
805.339	0.146829
805.646	0.146837
805.953	0.146718
806.259	0.146689
806.566	0.146554
806.873	0.146546
807.180	0.146425
807.486	0.146335
807.793	0.146289
808.100	0.146188
808.406	0.145891
808.713	0.145698
809.019	0.145215
809.326	0.145005
809.632	0.144971
809.938	0.144534
810.244	0.144224
810.551	0.144150
810.857	0.143905
811.163	0.143828
811.469	0.143481
811.775	0.143186
812.081	0.142948
812.387	0.142935
812.692	0.142823
812.998	0.142898
813.304	0.142810
813.610	0.142984
813.915	0.143023
814.221	0.142941
814.526	0.143018
814.832	0.143273
815.137	0.143302
815.443	0.143363
815.748	0.143184
816.053	0.142947
816.358	0.142829
816.664	0.142756
816.969	0.142851
817.274	0.142961
817.579	0.142821
817.884	0.142930
818.189	0.143050
818.493	0.142995
818.798	0.142944
819.103	0.142581
819.408	0.142279
819.712	0.142084
820.017	0.141822
820.321	0.141500
820.626	0.141600
820.930	0.141301
821.235	0.141171
821.539	0.141159
821.843	0.141151
822.148	0.141065
822.452	0.140902
822.756	0.141149
823.060	0.141064
823.364	0.140894
823.668	0.140725
823.972	0.140723
824.276	0.140986
824.580	0.140982
824.883	0.141132
825.187	0.141062
825.491	0.141210
825.795	0.141241
826.098	0.141136
826.402	0.141080
826.705	0.141180
827.008	0.140743
827.312	0.140651
827.615	0.140293
827.918	0.139752
828.222	0.139356
828.525	0.139238
828.828	0.139529
829.131	0.139496
829.434	0.139727
829.737	0.139559
830.040	0.139589
830.343	0.139708
830.645	0.139622
830.948	0.139506
831.251	0.139218
831.553	0.138993
831.856	0.138864
832.159	0.138938
832.461	0.138987
832.764	0.138711
833.066	0.138740
833.368	0.139035
833.671	0.138969
833.973	0.139031
834.275	0.139312
834.577	0.139403
834.879	0.139401
835.181	0.138847
835.483	0.138501
835.785	0.137851
836.087	0.137807
836.389	0.137614
836.690	0.136994
836.992	0.136324
837.294	0.135639
837.595	0.135145
837.897	0.135060
838.198	0.135080
838.500	0.134984
838.801	0.134478
839.103	0.134364
839.404	0.133702
839.705	0.133841
840.006	0.133927
840.307	0.134153
840.608	0.134302
840.910	0.135161
841.210	0.135117
841.511	0.135575
841.812	0.135492
842.113	0.135490
842.414	0.135296
842.715	0.135272
843.015	0.135347
843.316	0.135317
843.616	0.135342
843.917	0.135537
844.217	0.135493
844.518	0.135255
844.818	0.135357
845.118	0.136085
845.419	0.137169
845.719	0.137460
846.019	0.136597
846.319	0.136877
846.619	0.136688
846.919	0.136898
847.219	0.136186
847.519	0.136061
847.819	0.135996
848.118	0.135273
848.418	0.135328
848.718	0.134390
849.017	0.133753
849.317	0.133717
849.616	0.133318
849.916	0.133554
850.215	0.133028
850.515	0.132995
850.814	0.132683
851.113	0.131907
851.412	0.131222
851.712	0.130284
852.011	0.129871
852.310	0.129783
852.609	0.129445
852.908	0.129340
853.206	0.129072
853.505	0.129169
853.804	0.129051
854.103	0.128757
854.401	0.128657
854.700	0.128377
854.999	0.128343
855.297	0.128405
855.595	0.128206
855.894	0.128062
856.192	0.127610
856.491	0.127617
856.789	0.127348
857.087	0.126965
857.385	0.126924
857.683	0.127062
857.981	0.127513
858.279	0.128239
858.577	0.128079
858.875	0.128228
859.173	0.128276
859.471	0.128398
859.768	0.128510
860.066	0.128271
860.363	0.128307
860.661	0.128157
860.959	0.128398
861.256	0.128811
861.553	0.128283
861.851	0.127360
862.148	0.127123
862.445	0.127435
862.742	0.127634
863.039	0.127153
863.337	0.127619
863.634	0.127487
863.931	0.127160
864.227	0.127264
864.524	0.126742
864.821	0.127503
865.118	0.126817
865.415	0.126590
865.711	0.126067
866.008	0.124802
866.304	0.125075
866.601	0.124841
866.897	0.124984
867.194	0.125453
867.490	0.125073
867.786	0.124698
868.082	0.125613
868.379	0.125304
868.675	0.124978
868.971	0.123527
869.267	0.123266
869.563	0.122983
869.859	0.123004
870.154	0.122836
870.450	0.122261
870.746	0.121555
871.042	0.120629
871.337	0.121021
871.633	0.120802
871.928	0.120947
872.224	0.121320
872.519	0.120468
872.815	0.120620
873.110	0.120670
873.405	0.119914
873.700	0.120004
873.995	0.120396
874.291	0.120105
874.586	0.120969
874.881	0.120668
875.175	0.121017
875.470	0.120574
875.765	0.120301
876.060	0.119959
876.355	0.119559
876.649	0.119533
876.944	0.119427
877.238	0.119470
877.533	0.119363
877.827	0.119596
878.122	0.119746
878.416	0.119855
878.710	0.120299
879.005	0.119771
879.299	0.119358
879.593	0.119269
879.887	0.118533
880.181	0.118170
880.475	0.117940
880.769	0.118021
881.063	0.118102
881.356	0.118365
881.650	0.118513
881.944	0.118414
882.238	0.107531
882.531	0.118012
882.825	0.104535
883.118	0.113063
883.412	0.117059
883.705	0.136378
883.998	0.121479
884.291	0.120196
884.585	0.113396
884.878	0.117760
>>>>>>>>>> END of Data <<<<<<<<<<
>>>>>>>>>> Raw Data Start <<<<<<<<
190.664	-89
191.040	-1
191.415	-1
191.791	2
192.166	2
192.542	6
192.917	3
193.293	1
193.668	1
194.044	0
194.419	-2
194.794	2
195.170	2
195.545	2
195.920	2
196.296	2
196.671	2
197.046	2
197.421	3
197.796	3
198.171	3
198.546	3
198.922	3
199.297	3
199.672	4
200.047	4
200.422	4
200.796	4
201.171	4
201.546	4
201.921	4
202.296	4
202.671	5
203.045	5
203.420	5
203.795	5
204.170	5
204.544	5
204.919	5
205.294	5
205.668	5
206.043	5
206.417	5
206.792	5
207.166	5
207.541	5
207.915	5
208.289	5
208.664	5
209.038	4
209.412	5
209.787	4
210.161	4
210.535	5
210.909	5
211.284	4
211.658	4
212.032	4
212.406	4
212.780	4
213.154	4
213.528	5
213.902	5
214.276	5
214.650	4
215.024	4
215.398	4
215.772	4
216.145	4
216.519	5
216.893	5
217.267	5
217.640	5
218.014	6
218.388	6
218.761	6
219.135	6
219.508	6
219.882	6
220.256	6
220.629	6
221.003	6
221.376	6
221.749	6
222.123	6
222.496	6
222.869	6
223.243	6
223.616	6
223.989	6
224.362	6
224.736	6
225.109	6
225.482	6
225.855	6
226.228	5
226.601	5
226.974	5
227.347	6
227.720	6
228.093	5
228.466	5
228.839	5
229.212	5
229.585	5
229.957	5
230.330	5
230.703	5
231.076	5
231.448	5
231.821	4
232.194	4
232.566	4
232.939	5
233.311	4
233.684	5
234.056	5
234.429	5
234.801	5
235.174	5
235.546	5
235.918	6
236.291	6
236.663	6
237.035	6
237.408	7
237.780	7
238.152	7
238.524	7
238.896	7
239.268	7
239.641	8
240.013	8
240.385	8
240.757	8
241.129	8
241.500	8
241.872	7
242.244	8
242.616	8
242.988	7
243.360	7
243.731	7
244.103	7
244.475	7
244.847	7
245.218	7
245.590	6
245.961	6
246.333	6
246.705	6
247.076	6
247.448	6
247.819	6
248.190	7
248.562	7
248.933	7
249.305	7
249.676	7
250.047	7
250.418	7
250.790	7
251.161	7
251.532	7
251.903	7
252.274	7
252.645	7
253.016	7
253.387	7
253.758	8
254.129	8
254.500	8
254.871	8
255.242	8
255.613	8
255.984	8
256.355	8
256.725	8
257.096	8
257.467	8
257.838	8
258.208	8
258.579	8
258.949	8
259.320	8
259.690	8
260.061	8
260.431	8
260.802	9
261.172	8
261.543	8
261.913	8
262.283	8
262.654	8
263.024	8
263.394	8
263.764	7
264.135	8
264.505	8
264.875	8
265.245	8
265.615	7
265.985	7
266.355	7
266.725	8
267.095	8
267.465	8
267.835	8
268.205	8
268.575	8
268.944	8
269.314	7
269.684	7
270.054	7
270.423	7
270.793	7
271.163	7
271.532	7
271.902	7
272.271	7
272.641	7
273.010	7
273.380	7
273.749	7
274.119	7
274.488	7
274.857	7
275.227	7
275.596	7
275.965	7
276.335	8
276.704	8
277.073	8
277.442	8
277.811	8
278.180	8
278.549	8
278.918	9
279.287	9
279.656	9
280.025	9
280.394	9
280.763	9
281.132	9
281.501	9
281.869	9
282.238	8
282.607	9
282.976	8
283.344	8
283.713	8
284.081	8
284.450	8
284.819	8
285.187	8
285.556	8
285.924	8
286.292	8
286.661	8
287.029	8
287.398	8
287.766	8
288.134	8
288.502	8
288.871	8
289.239	8
289.607	8
289.975	8
290.343	8
290.711	8
291.079	8
291.447	8
291.815	8
292.183	8
292.551	8
292.919	8
293.287	8
293.655	8
294.022	8
294.390	8
294.758	8
295.126	8
295.493	8
295.861	7
296.229	8
296.596	8
296.964	7
297.331	8
297.699	8
298.066	8
298.434	8
298.801	8
299.168	8
299.536	8
299.903	8
300.270	7
300.638	8
301.005	7
301.372	7
301.739	8
302.106	8
302.473	8
302.840	8
303.207	7
303.574	7
303.941	7
304.308	8
304.675	8
305.042	7
305.409	7
305.776	7
306.143	7
306.509	7
306.876	8
307.243	8
307.610	8
307.976	8
308.343	8
308.709	8
309.076	8
309.442	8
309.809	8
310.175	8
310.542	8
310.908	9
311.275	9
311.641	9
312.007	9
312.373	9
312.740	10
313.106	10
313.472	10
313.838	10
314.204	10
314.570	10
314.936	10
315.302	10
315.668	10
316.034	10
316.400	10
316.766	10
317.132	11
317.498	11
317.864	11
318.230	12
318.595	11
318.961	12
319.327	12
319.692	12
320.058	13
320.424	13
320.789	13
321.155	13
321.520	14
321.886	14
322.251	15
322.616	15
322.982	16
323.347	16
323.712	17
324.078	18
324.443	18
324.808	19
325.173	19
325.539	20
325.904	20
326.269	21
326.634	22
326.999	23
327.364	23
327.729	24
328.094	24
328.459	25
328.823	26
329.188	27
329.553	28
329.918	28
330.283	29
330.647	30
331.012	30
331.377	31
331.741	32
332.106	32
332.470	33
332.835	34
333.199	35
333.564	35
333.928	36
334.293	37
334.657	38
335.021	38
335.386	39
335.750	40
336.114	41
336.478	41
336.843	42
337.207	43
337.571	44
337.935	45
338.299	46
338.663	47
339.027	48
339.391	49
339.755	50
340.119	51
340.483	52
340.846	52
341.210	53
341.574	54
341.938	55
342.301	55
342.665	56
343.029	57
343.392	58
343.756	59
344.119	60
344.483	61
344.846	62
345.210	62
345.573	63
345.937	63
346.300	64
346.663	65
347.027	66
347.390	66
347.753	67
348.116	67
348.479	68
348.843	69
349.206	70
349.569	71
349.932	72
350.295	72
350.658	73
351.021	73
351.383	73
351.746	74
352.109	74
352.472	75
352.835	75
353.197	76
353.560	76
353.923	77
354.285	77
354.648	78
355.011	78
355.373	78
355.736	79
356.098	79
356.461	80
356.823	80
357.185	81
357.548	81
357.910	81
358.272	82
358.635	83
358.997	83
359.359	83
359.721	83
360.083	84
360.445	84
360.807	85
361.169	85
361.531	85
361.893	85
362.255	86
362.617	86
362.979	86
363.341	87
363.703	87
364.064	87
364.426	87
364.788	88
365.149	88
365.511	88
365.873	89
366.234	89
366.596	89
366.957	89
367.319	89
367.680	89
368.042	90
368.403	90
368.764	90
369.126	90
369.487	90
369.848	90
370.209	90
370.570	90
370.931	90
371.293	90
371.654	90
372.015	90
372.376	90
372.737	90
373.098	90
373.458	90
373.819	90
374.180	90
374.541	90
374.902	90
375.263	90
375.623	91
375.984	90
376.345	91
376.705	90
377.066	90
377.426	91
377.787	91
378.147	92
378.508	92
378.868	92
379.228	92
379.589	93
379.949	93
380.309	93
380.670	93
381.030	94
381.390	94
381.750	94
382.110	94
382.470	95
382.830	94
383.190	94
383.550	95
383.910	95
384.270	95
384.630	96
384.990	96
385.350	96
385.709	97
386.069	97
386.429	97
386.788	97
387.148	97
387.508	97
387.867	97
388.227	97
388.586	97
388.946	98
389.305	98
389.665	98
390.024	99
390.383	100
390.743	100
391.102	101
391.461	101
391.820	101
392.179	101
392.539	101
392.898	101
393.257	101
393.616	101
393.975	102
394.334	102
394.693	103
395.051	104
395.410	105
395.769	105
396.128	106
396.487	106
396.845	106
397.204	106
397.563	106
397.921	107
398.280	107
398.638	107
398.997	107
399.355	108
399.714	108
400.072	108
400.431	109
400.789	109
401.147	110
401.506	111
401.864	111
402.222	112
402.580	112
402.938	112
403.297	112
403.655	112
404.013	112
404.371	112
404.729	113
405.087	113
405.444	113
405.802	114
406.160	114
406.518	114
406.876	114
407.233	115
407.591	115
407.949	115
408.306	115
408.664	115
409.022	115
409.379	115
409.737	116
410.094	116
410.451	116
410.809	116
411.166	117
411.523	117
411.881	117
412.238	118
412.595	118
412.952	119
413.310	119
413.667	119
414.024	120
414.381	120
414.738	120
415.095	121
415.452	121
415.809	122
416.165	122
416.522	123
416.879	124
417.236	124
417.593	126
417.949	127
418.306	128
418.663	129
419.019	131
419.376	133
419.732	134
420.089	135
420.445	137
420.802	138
421.158	140
421.514	141
421.871	142
422.227	143
422.583	144
422.939	145
423.295	145
423.652	147
424.008	148
424.364	148
424.720	149
425.076	149
425.432	149
425.788	150
426.143	151
426.499	152
426.855	153
427.211	154
427.567	155
427.922	156
428.278	156
428.634	157
428.989	157
429.345	158
429.700	159
430.056	160
430.411	160
430.767	162
431.122	163
431.478	163
431.833	164
432.188	166
432.543	167
432.899	168
433.254	168
433.609	169
433.964	169
434.319	169
434.674	170
435.029	170
435.384	171
435.739	173
436.094	174
436.449	176
436.804	177
437.158	179
437.513	182
437.868	184
438.223	187
438.577	190
438.932	193
439.287	196
439.641	199
439.996	202
440.350	205
440.704	207
441.059	211
441.413	214
441.768	217
442.122	220
442.476	223
442.830	226
443.185	228
443.539	231
443.893	234
444.247	237
444.601	239
444.955	241
445.309	242
445.663	244
446.017	245
446.371	246
446.724	247
447.078	248
447.432	249
447.786	250
448.139	251
448.493	251
448.847	251
449.200	252
449.554	252
449.907	252
450.261	253
450.614	253
450.968	254
451.321	255
451.674	256
452.027	256
452.381	257
452.734	258
453.087	259
453.440	260
453.793	262
454.146	263
454.499	265
454.852	268
455.205	271
455.558	274
455.911	277
456.264	281
456.617	284
456.970	287
457.322	290
457.675	292
458.028	295
458.380	297
458.733	299
459.086	301
459.438	304
459.791	306
460.143	310
460.496	314
460.848	317
461.200	322
461.553	327
461.905	332
462.257	336
462.609	340
462.961	344
463.314	347
463.666	350
464.018	353
464.370	356
464.722	359
465.074	363
465.426	365
465.777	368
466.129	370
466.481	372
466.833	374
467.184	375
467.536	376
467.888	376
468.239	376
468.591	377
468.943	377
469.294	378
469.646	380
469.997	382
470.348	385
470.700	388
471.051	392
471.402	397
471.754	403
472.105	409
472.456	415
472.807	423
473.158	431
473.509	440
473.860	449
474.211	459
474.562	469
474.913	479
475.264	490
475.615	501
475.966	512
476.316	523
476.667	533
477.018	544
477.368	555
477.719	566
478.070	578
478.420	588
478.771	598
479.121	609
479.472	619
479.822	630
480.172	641
480.523	654
480.873	671
481.223	699
481.573	741
481.924	795
482.274	855
482.624	918
482.974	983
483.324	1040
483.674	1084
484.024	1114
484.374	1135
484.724	1149
485.073	1159
485.423	1167
485.773	1176
486.123	1183
486.472	1191
486.822	1198
487.172	1205
487.521	1210
487.871	1214
488.220	1212
488.570	1200
488.919	1173
489.268	1136
489.618	1091
489.967	1042
490.316	992
490.666	948
491.015	917
491.364	898
491.713	890
492.062	888
492.411	890
492.760	894
493.109	898
493.458	903
493.807	907
494.156	911
494.505	914
494.853	918
495.202	923
495.551	930
495.900	936
496.248	942
496.597	949
496.945	955
497.294	962
497.642	968
497.991	977
498.339	986
498.688	995
499.036	1004
499.384	1013
499.732	1021
500.081	1027
500.429	1034
500.777	1040
501.125	1045
501.473	1051
501.821	1057
502.169	1062
502.517	1067
502.865	1070
503.213	1073
503.561	1076
503.908	1078
504.256	1079
504.604	1080
504.952	1081
505.299	1081
505.647	1080
505.994	1078
506.342	1076
506.689	1074
507.037	1072
507.384	1072
507.732	1071
508.079	1071
508.426	1071
508.774	1072
509.121	1072
509.468	1071
509.815	1070
510.162	1070
510.509	1069
510.856	1068
511.203	1067
511.550	1066
511.897	1065
512.244	1064
512.591	1063
512.938	1062
513.284	1061
513.631	1060
513.978	1058
514.324	1056
514.671	1054
515.018	1051
515.364	1049
515.711	1048
516.057	1046
516.403	1044
516.750	1042
517.096	1040
517.443	1037
517.789	1034
518.135	1030
518.481	1028
518.827	1026
519.173	1023
519.519	1021
519.865	1019
520.211	1018
520.557	1016
520.903	1016
521.249	1014
521.595	1014
521.941	1013
522.287	1013
522.632	1012
522.978	1011
523.324	1011
523.669	1012
524.015	1013
524.360	1016
524.706	1020
525.051	1025
525.397	1031
525.742	1037
526.087	1043
526.433	1050
526.778	1055
527.123	1059
527.468	1064
527.813	1067
528.158	1071
528.504	1075
528.849	1082
529.193	1090
529.538	1099
529.883	1110
530.228	1123
530.573	1138
530.918	1153
531.263	1168
531.607	1183
531.952	1196
532.296	1207
532.641	1216
532.986	1224
533.330	1231
533.675	1238
534.019	1248
534.363	1260
534.708	1274
535.052	1290
535.396	1308
535.741	1325
536.085	1340
536.429	1354
536.773	1365
537.117	1375
537.461	1384
537.805	1392
538.149	1401
538.493	1410
538.837	1420
539.181	1431
539.524	1446
539.868	1462
540.212	1480
540.556	1499
540.899	1519
541.243	1538
541.586	1554
541.930	1566
542.273	1576
542.617	1584
542.960	1593
543.304	1603
543.647	1617
543.990	1634
544.333	1653
544.677	1672
545.020	1691
545.363	1708
545.706	1721
546.049	1732
546.392	1739
546.735	1743
547.078	1746
547.421	1749
547.764	1753
548.106	1759
548.449	1766
548.792	1777
549.135	1791
549.477	1807
549.820	1825
550.162	1840
550.505	1853
550.847	1863
551.190	1871
551.532	1878
551.875	1885
552.217	1893
552.559	1903
552.901	1915
553.244	1929
553.586	1946
553.928	1963
554.270	1978
554.612	1991
554.954	2002
555.296	2012
555.638	2021
555.980	2031
556.322	2044
556.663	2060
557.005	2081
557.347	2106
557.689	2134
558.030	2162
558.372	2188
558.713	2213
559.055	2235
559.396	2258
559.738	2282
560.079	2307
560.421	2336
560.762	2369
561.103	2404
561.444	2444
561.786	2484
562.127	2527
562.468	2574
562.809	2625
563.150	2681
563.491	2741
563.832	2807
564.173	2883
564.514	2969
564.855	3072
565.195	3198
565.536	3348
565.877	3523
566.218	3722
566.558	3946
566.899	4193
567.239	4460
567.580	4742
567.920	5033
568.261	5326
568.601	5628
568.941	5940
569.282	6262
569.622	6596
569.962	6943
570.302	7313
570.643	7698
570.983	8087
571.323	8465
571.663	8831
572.003	9180
572.343	9509
572.683	9818
573.022	10130
573.362	10458
573.702	10800
574.042	11143
574.381	11475
574.721	11792
575.061	12097
575.400	12377
575.740	12628
576.079	12850
576.419	13069
576.758	13314
577.097	13603
577.437	13920
577.776	14259
578.115	14615
578.454	14977
578.794	15315
579.133	15582
579.472	15770
579.811	15887
580.150	15936
580.489	15932
580.828	15903
581.167	15875
581.505	15860
581.844	15853
582.183	15845
582.522	15848
582.860	15860
583.199	15871
583.538	15863
583.876	15808
584.215	15688
584.553	15495
584.891	15234
585.230	14906
585.568	14541
585.906	14164
586.245	13821
586.583	13525
586.921	13282
587.259	13064
587.597	12845
587.935	12618
588.273	12385
588.611	12167
588.949	11974
589.287	11813
589.625	11687
589.963	11591
590.300	11517
590.638	11452
590.976	11378
591.313	11288
591.651	11200
591.989	11124
592.326	11065
592.664	11014
593.001	10973
593.338	10950
593.676	10943
594.013	10953
594.350	10998
594.687	11074
595.025	11158
595.362	11237
595.699	11296
596.036	11336
596.373	11354
596.710	11342
597.047	11308
597.384	11265
597.720	11213
598.057	11172
598.394	11144
598.731	11130
599.067	11133
599.404	11155
599.741	11204
600.077	11271
600.414	11347
600.750	11427
601.087	11491
601.423	11527
601.759	11534
602.096	11520
602.432	11491
602.768	11445
603.104	11380
603.440	11297
603.776	11209
604.112	11112
604.448	11013
604.784	10909
605.120	10797
605.456	10687
605.792	10573
606.128	10454
606.463	10331
606.799	10206
607.135	10094
607.470	9981
607.806	9871
608.142	9762
608.477	9657
608.812	9558
609.148	9457
609.483	9352
609.819	9244
610.154	9139
610.489	9042
610.824	8957
611.159	8887
611.494	8816
611.830	8755
612.165	8694
612.500	8628
612.834	8549
613.169	8458
613.504	8358
613.839	8247
614.174	8119
614.509	7990
614.843	7861
615.178	7738
615.512	7615
615.847	7495
616.182	7377
616.516	7258
616.850	7131
617.185	7000
617.519	6866
617.853	6723
618.188	6572
618.522	6433
618.856	6315
619.190	6212
619.524	6123
619.858	6051
620.192	5996
620.526	5947
620.860	5900
621.194	5853
621.528	5808
621.862	5762
622.195	5707
622.529	5647
622.863	5585
623.196	5523
623.530	5460
623.864	5397
624.197	5334
624.530	5272
624.864	5216
625.197	5158
625.531	5094
625.864	5015
626.197	4931
626.530	4839
626.863	4736
627.196	4623
627.529	4509
627.862	4396
628.195	4284
628.528	4174
628.861	4067
629.194	3971
629.527	3881
629.860	3791
630.192	3703
630.525	3620
630.858	3543
631.190	3469
631.523	3398
631.855	3331
632.188	3273
632.520	3219
632.852	3169
633.185	3118
633.517	3067
633.849	3022
634.182	2981
634.514	2942
634.846	2907
635.178	2876
635.510	2848
635.842	2824
636.174	2800
636.506	2775
636.837	2751
637.169	2728
637.501	2703
637.833	2676
638.164	2646
638.496	2611
638.828	2573
639.159	2529
639.491	2482
639.822	2432
640.154	2381
640.485	2332
640.816	2282
641.147	2233
641.479	2186
641.810	2140
642.141	2096
642.472	2053
642.803	2010
643.134	1969
643.465	1934
643.796	1905
644.127	1884
644.458	1873
644.789	1873
645.119	1884
645.450	1902
645.781	1923
646.111	1944
646.442	1962
646.773	1977
647.103	1989
647.433	1999
647.764	2009
648.094	2023
648.425	2040
648.755	2060
649.085	2083
649.415	2108
649.745	2134
650.075	2160
650.405	2190
650.735	2243
651.065	2622
651.395	3921
651.725	6184
652.055	9150
652.385	12605
652.715	16228
653.044	19851
653.374	23479
653.704	26456
654.033	28567
654.363	30022
654.692	30989
655.022	31613
655.351	32016
655.680	32262
656.010	32393
656.339	32452
656.668	32467
656.997	32459
657.326	32435
657.655	32376
657.984	31985
658.313	30664
658.642	28371
658.971	25369
659.300	21873
659.629	18208
659.958	14544
660.286	10880
660.615	7872
660.944	5737
661.272	4260
661.601	3273
661.929	2628
662.258	2200
662.586	1924
662.915	1758
663.243	1662
663.571	1607
663.899	1574
664.228	1552
664.556	1538
664.884	1528
665.212	1522
665.540	1517
665.868	1515
666.196	1514
666.524	1514
666.852	1515
667.179	1521
667.507	1533
667.835	1550
668.162	1574
668.490	1602
668.818	1636
669.145	1671
669.473	1707
669.800	1740
670.127	1770
670.455	1794
670.782	1815
671.109	1834
671.436	1849
671.764	1861
672.091	1872
672.418	1881
672.745	1888
673.072	1896
673.399	1905
673.726	1914
674.053	1921
674.379	1924
674.706	1924
675.033	1923
675.359	1921
675.686	1917
676.013	1915
676.339	1916
676.666	1922
676.992	1937
677.318	1956
677.645	1980
677.971	2002
678.297	2021
678.624	2040
678.950	2059
679.276	2076
679.602	2092
679.928	2109
680.254	2129
680.580	2156
680.906	2190
681.232	2232
681.558	2277
681.883	2322
682.209	2364
682.535	2402
682.860	2438
683.186	2468
683.511	2492
683.837	2507
684.162	2519
684.488	2529
684.813	2539
685.138	2549
685.464	2556
685.789	2563
686.114	2570
686.439	2579
686.764	2589
687.089	2597
687.414	2599
687.739	2592
688.064	2578
688.389	2559
688.714	2536
689.039	2511
689.363	2486
689.688	2457
690.013	2428
690.337	2403
690.662	2383
690.986	2364
691.311	2346
691.635	2327
691.959	2309
692.284	2297
692.608	2294
692.932	2298
693.256	2306
693.580	2317
693.904	2330
694.228	2345
694.552	2360
694.876	2368
695.200	2368
695.524	2358
695.848	2344
696.172	2325
696.495	2306
696.819	2285
697.143	2264
697.466	2242
697.790	2223
698.113	2211
698.437	2204
698.760	2203
699.083	2203
699.407	2198
699.730	2187
700.053	2170
700.376	2146
700.699	2112
701.022	2069
701.345	2021
701.668	1976
701.991	1937
702.314	1909
702.637	1896
702.960	1899
703.283	1918
703.605	1952
703.928	1999
704.251	2053
704.573	2107
704.896	2156
705.218	2196
705.540	2228
705.863	2252
706.185	2272
706.507	2289
706.830	2305
707.152	2321
707.474	2338
707.796	2358
708.118	2380
708.440	2401
708.762	2420
709.084	2436
709.406	2444
709.728	2446
710.049	2442
710.371	2433
710.693	2416
711.014	2398
711.336	2381
711.658	2366
711.979	2352
712.301	2340
712.622	2327
712.943	2312
713.265	2293
713.586	2273
713.907	2254
714.228	2238
714.549	2225
714.870	2216
715.191	2213
715.512	2213
715.833	2212
716.154	2207
716.475	2198
716.796	2185
717.117	2164
717.437	2141
717.758	2114
718.078	2086
718.399	2059
718.719	2035
719.040	2013
719.360	1997
719.681	1985
720.001	1978
720.321	1974
720.642	1972
720.962	1974
721.282	1979
721.602	1985
721.922	1993
722.242	2002
722.562	2015
722.882	2031
723.202	2046
723.521	2059
723.841	2074
724.161	2088
724.481	2103
724.800	2118
725.120	2136
725.439	2159
725.759	2185
726.078	2214
726.398	2250
726.717	2294
727.036	2344
727.355	2397
727.675	2449
727.994	2499
728.313	2547
728.632	2588
728.951	2624
729.270	2653
729.589	2681
729.908	2714
730.226	2751
730.545	2793
730.864	2838
731.182	2887
731.501	2936
731.820	2984
732.138	3026
732.457	3062
732.775	3096
733.093	3123
733.412	3140
733.730	3145
734.048	3139
734.367	3125
734.685	3106
735.003	3084
735.321	3065
735.639	3048
735.957	3036
736.275	3026
736.593	3010
736.910	2986
737.228	2952
737.546	2907
737.863	2854
738.181	2796
738.499	2735
738.816	2674
739.134	2614
739.451	2554
739.768	2493
740.086	2434
740.403	2379
740.720	2328
741.038	2281
741.355	2235
741.672	2190
741.989	2142
742.306	2094
742.623	2044
742.940	1995
743.257	1949
743.573	1909
743.890	1875
744.207	1850
744.523	1833
744.840	1822
745.157	1814
745.473	1813
745.790	1818
746.106	1832
746.422	1852
746.739	1879
747.055	1910
747.371	1946
747.687	1985
748.004	2022
748.320	2054
748.636	2083
748.952	2112
749.268	2140
749.584	2168
749.899	2193
750.215	2220
750.531	2249
750.847	2281
751.162	2314
751.478	2345
751.793	2378
752.109	2413
752.424	2451
752.740	2489
753.055	2533
753.370	2585
753.686	2646
754.001	2712
754.316	2781
754.631	2854
754.946	2932
755.261	3015
755.576	3094
755.891	3171
756.206	3247
756.521	3326
756.836	3406
757.150	3485
757.465	3555
757.780	3614
758.094	3665
758.409	3704
758.723	3729
759.038	3741
759.352	3743
759.667	3734
759.981	3715
760.295	3697
760.609	3682
760.923	3672
761.238	3666
761.552	3662
761.866	3656
762.180	3650
762.493	3631
762.807	3595
763.121	3538
763.435	3466
763.749	3385
764.062	3309
764.376	3245
764.689	3200
765.003	3176
765.316	3171
765.630	3180
765.943	3198
766.257	3219
766.570	3237
766.883	3243
767.196	3235
767.509	3215
767.822	3185
768.135	3144
768.448	3101
768.761	3055
769.074	3015
769.387	2983
769.700	2964
770.013	2952
770.325	2943
770.638	2930
770.950	2907
771.263	2869
771.575	2815
771.888	2746
772.200	2666
772.513	2579
772.825	2486
773.137	2392
773.449	2299
773.761	2209
774.074	2125
774.386	2050
774.698	1988
775.010	1936
775.321	1898
775.633	1873
775.945	1859
776.257	1851
776.568	1849
776.880	1854
777.192	1868
777.503	1888
777.815	1913
778.126	1946
778.438	1985
778.749	2028
779.060	2071
779.372	2110
779.683	2148
779.994	2183
780.305	2210
780.616	2230
780.927	2242
781.238	2247
781.549	2243
781.860	2229
782.171	2210
782.481	2187
782.792	2164
783.103	2142
783.413	2117
783.724	2091
784.034	2065
784.345	2042
784.655	2020
784.966	1999
785.276	1975
785.586	1953
785.896	1931
786.207	1908
786.517	1883
786.827	1858
787.137	1835
787.447	1812
787.757	1790
788.066	1770
788.376	1751
788.686	1731
788.996	1712
789.305	1692
789.615	1676
789.925	1667
790.234	1665
790.544	1669
790.853	1677
791.162	1686
791.472	1694
791.781	1698
792.090	1695
792.399	1685
792.708	1669
793.017	1652
793.326	1634
793.635	1618
793.944	1603
794.253	1590
794.562	1581
794.871	1575
795.179	1571
795.488	1565
795.797	1557
796.105	1543
796.414	1520
796.722	1490
797.031	1450
797.339	1402
797.647	1348
797.956	1291
798.264	1238
798.572	1193
798.880	1158
799.188	1133
799.496	1114
799.804	1100
800.112	1089
800.420	1081
800.728	1072
801.035	1061
801.343	1048
801.651	1037
801.958	1034
802.266	1038
802.573	1046
802.881	1057
803.188	1071
803.496	1087
803.803	1102
804.110	1117
804.417	1130
804.724	1142
805.032	1153
805.339	1161
805.646	1167
805.953	1170
806.259	1171
806.566	1169
806.873	1165
807.180	1159
807.486	1153
807.793	1146
808.100	1135
808.406	1117
808.713	1091
809.019	1062
809.326	1032
809.632	1002
809.938	975
810.244	950
810.551	929
810.857	911
811.163	896
811.469	880
811.775	864
812.081	846
812.387	830
812.692	817
812.998	807
813.304	800
813.610	793
813.915	788
814.221	784
814.526	780
814.832	776
815.137	773
815.443	768
815.748	760
816.053	750
816.358	740
816.664	731
816.969	722
817.274	714
817.579	708
817.884	704
818.189	703
818.493	702
818.798	701
819.103	697
819.408	690
819.712	682
820.017	673
820.321	664
820.626	655
820.930	646
821.235	640
821.539	638
821.843	637
822.148	639
822.452	640
822.756	639
823.060	637
823.364	634
823.668	628
823.972	622
824.276	615
824.580	609
824.883	606
825.187	606
825.491	605
825.795	605
826.098	606
826.402	605
826.705	602
827.008	599
827.312	593
827.615	583
827.918	571
828.222	558
828.525	544
828.828	530
829.131	517
829.434	503
829.737	490
830.040	480
830.343	471
830.645	464
830.948	456
831.251	449
831.553	443
831.856	438
832.159	433
832.461	427
832.764	421
833.066	415
833.368	410
833.671	406
833.973	403
834.275	400
834.577	397
834.879	394
835.181	390
835.483	385
835.785	381
836.087	374
836.389	366
836.690	357
836.992	347
837.294	336
837.595	325
837.897	313
838.198	302
838.500	291
838.801	281
839.103	273
839.404	266
839.705	260
840.006	254
840.307	250
840.608	247
840.910	245
841.210	243
841.511	241
841.812	239
842.113	236
842.414	233
842.715	228
843.015	223
843.316	218
843.616	213
843.917	209
844.217	205
844.518	202
844.818	200
845.118	198
845.419	196
845.719	195
846.019	194
846.319	193
846.619	192
846.919	191
847.219	191
847.519	189
847.819	188
848.118	189
848.418	191
848.718	197
849.017	206
849.317	220
849.616	237
849.916	256
850.215	277
850.515	300
850.814	323
851.113	344
851.412	363
851.712	381
852.011	397
852.310	412
852.609	426
852.908	437
853.206	448
853.505	457
853.804	466
854.103	473
854.401	479
854.700	481
854.999	480
855.297	474
855.595	464
855.894	451
856.192	435
856.491	416
856.789	395
857.087	374
857.385	354
857.683	336
857.981	319
858.279	304
858.577	289
858.875	276
859.173	266
859.471	258
859.768	251
860.066	245
860.363	239
860.661	235
860.959	232
861.256	229
861.553	225
861.851	221
862.148	217
862.445	212
862.742	208
863.039	204
863.337	201
863.634	198
863.931	197
864.227	196
864.524	195
864.821	195
865.118	194
865.415	193
865.711	190
866.008	187
866.304	183
866.601	180
866.897	176
867.194	174
867.490	172
867.786	171
868.082	170
868.379	171
868.675	172
868.971	172
869.267	173
869.563	173
869.859	172
870.154	172
870.450	171
870.746	170
871.042	170
871.337	169
871.633	170
871.928	171
872.224	172
872.519	173
872.815	174
873.110	175
873.405	175
873.700	174
873.995	174
874.291	174
874.586	174
874.881	175
875.175	177
875.470	180
875.765	183
876.060	186
876.355	190
876.649	194
876.944	198
877.238	201
877.533	204
877.827	207
878.122	209
878.416	209
878.710	209
879.005	209
879.299	208
879.593	208
879.887	207
880.181	206
880.475	205
880.769	203
881.063	201
881.356	199
881.650	196
881.944	193
882.238	162
882.531	152
882.825	154
883.118	153
883.412	155
883.705	146
883.998	156
884.291	161
884.585	164
884.878	169
>>>>>>>>>> END of Data <<<<<<<<<<