Date	2023年01月06日金曜日 11時57分26秒
Spectrometers	USB2+H05879
ダーク	使用
リファレンス	使用
積分時間[msec]	2
平均回数	10000
ｽﾑｰｼﾞﾝｸﾞ	4
Electrical Dark	USE
ピクセル数	2048
計測モード	吸光度
保存開始波長[nm]	190.664
保存終了波長[nm]	884.878
保存ﾋﾟｯﾁ波長[nm]	全波長

>>>>>>>>>> Data Start <<<<<<<<<<<<
190.664	1.112447
191.040	0.640937
191.415	0.640937
191.791	0.000000
192.166	0.000000
192.542	0.000000
192.917	0.000000
193.293	0.000000
193.668	0.000000
194.044	0.000000
194.419	0.000000
194.794	0.000000
195.170	0.000000
195.545	0.000000
195.920	0.000000
196.296	0.000000
196.671	0.000000
197.046	0.751817
197.421	1.720005
197.796	0.540038
198.171	0.234512
198.546	0.234124
198.922	0.201444
199.297	0.354728
199.672	1.144587
200.047	0.000000
200.422	0.000000
200.796	0.000000
201.171	0.000000
201.546	0.000000
201.921	0.000000
202.296	0.000000
202.671	0.000000
203.045	0.000000
203.420	0.000000
203.795	0.000000
204.170	0.000000
204.544	0.000000
204.919	0.000000
205.294	0.037048
205.668	0.364853
206.043	0.701197
206.417	0.000000
206.792	0.000000
207.166	0.000000
207.541	0.000000
207.915	0.000000
208.289	0.000000
208.664	0.000000
209.038	0.000000
209.412	0.000000
209.787	0.000000
210.161	0.000000
210.535	0.000000
210.909	0.000000
211.284	0.847075
211.658	0.292750
212.032	0.188051
212.406	0.200968
212.780	0.191175
213.154	0.206923
213.528	0.223489
213.902	0.292880
214.276	0.333464
214.650	0.427211
215.024	0.390280
215.398	0.411756
215.772	0.460358
216.145	0.468087
216.519	0.388636
216.893	0.428773
217.267	0.378712
217.640	0.406845
218.014	0.334160
218.388	0.753874
218.761	0.674744
219.135	0.603722
219.508	0.752191
219.882	0.989093
220.256	1.444245
220.629	1.074116
221.003	0.664584
221.376	0.652322
221.749	0.465595
222.123	0.623855
222.496	1.645148
222.869	0.000000
223.243	0.000000
223.616	1.419710
223.989	1.089776
224.362	0.538387
224.736	0.797312
225.109	0.708530
225.482	1.497915
225.855	0.440096
226.228	0.255332
226.601	0.412860
226.974	1.695955
227.347	0.000000
227.720	0.000000
228.093	0.000000
228.466	0.000000
228.839	0.000000
229.212	0.000000
229.585	0.000000
229.957	1.075853
230.330	0.642014
230.703	0.679841
231.076	1.002471
231.448	1.309633
231.821	0.599809
232.194	0.544416
232.566	0.635675
232.939	0.720638
233.311	0.531178
233.684	0.483944
234.056	0.433604
234.429	0.416450
234.801	0.442578
235.174	0.498451
235.546	0.470098
235.918	0.629830
236.291	1.080758
236.663	1.480717
237.035	0.000000
237.408	0.000000
237.780	0.000000
238.152	0.000000
238.524	0.000000
238.896	0.000000
239.268	0.000000
239.641	1.081444
240.013	0.000000
240.385	0.000000
240.757	0.522823
241.129	0.000000
241.500	0.668811
241.872	0.497319
242.244	0.626341
242.616	1.287804
242.988	0.000000
243.360	0.000000
243.731	0.000000
244.103	0.000000
244.475	0.000000
244.847	0.000000
245.218	0.000000
245.590	0.000000
245.961	0.000000
246.333	0.000000
246.705	0.000000
247.076	0.000000
247.448	0.000000
247.819	0.000000
248.190	0.000000
248.562	0.000000
248.933	1.495367
249.305	0.775516
249.676	0.416294
250.047	0.538257
250.418	0.389090
250.790	0.333211
251.161	0.346830
251.532	0.578606
251.903	0.984965
252.274	0.000000
252.645	0.000000
253.016	0.000000
253.387	0.000000
253.758	0.000000
254.129	0.000000
254.500	1.417709
254.871	0.650418
255.242	0.413605
255.613	0.554156
255.984	0.455853
256.355	0.495545
256.725	0.571628
257.096	0.736409
257.467	0.812750
257.838	0.800246
258.208	0.645151
258.579	0.842469
258.949	0.502952
259.320	0.454215
259.690	0.462435
260.061	0.406544
260.431	0.390516
260.802	0.340028
261.172	0.452965
261.543	0.584795
261.913	0.666968
262.283	0.965019
262.654	0.000000
263.024	0.000000
263.394	0.000000
263.764	0.000000
264.135	0.000000
264.505	0.830838
264.875	0.782401
265.245	0.617271
265.615	0.627323
265.985	0.307789
266.355	0.324338
266.725	0.356703
267.095	0.369665
267.465	0.383339
267.835	0.395071
268.205	0.367069
268.575	0.436888
268.944	0.591318
269.314	0.992144
269.684	0.993913
270.054	0.999186
270.423	0.785277
270.793	0.864474
271.163	0.000000
271.532	0.000000
271.902	0.000000
272.271	0.000000
272.641	0.000000
273.010	0.000000
273.380	0.000000
273.749	0.000000
274.119	1.335162
274.488	0.699203
274.857	0.576187
275.227	0.523631
275.596	0.492153
275.965	0.432913
276.335	0.442424
276.704	0.436028
277.073	0.394745
277.442	0.443273
277.811	0.521808
278.180	0.548019
278.549	0.540899
278.918	0.501108
279.287	0.658851
279.656	1.025944
280.025	0.000000
280.394	0.000000
280.763	0.000000
281.132	0.000000
281.501	0.000000
281.869	0.000000
282.238	0.000000
282.607	1.375633
282.976	1.258351
283.344	0.788088
283.713	1.086569
284.081	1.484571
284.450	1.312724
284.819	1.049993
285.187	0.000000
285.556	0.000000
285.924	0.000000
286.292	1.161269
286.661	0.953750
287.029	0.000000
287.398	0.997071
287.766	0.899620
288.134	0.780370
288.502	0.581559
288.871	0.524123
289.239	0.594348
289.607	0.640840
289.975	0.814116
290.343	0.616976
290.711	0.700046
291.079	1.885705
291.447	1.150063
291.815	1.164447
292.183	0.000000
292.551	1.322915
292.919	1.434785
293.287	1.345464
293.655	0.000000
294.022	1.328573
294.390	1.096832
294.758	0.000000
295.126	0.000000
295.493	0.000000
295.861	0.000000
296.229	0.000000
296.596	0.000000
296.964	0.955542
297.331	0.000000
297.699	0.000000
298.066	0.968792
298.434	0.848536
298.801	0.648843
299.168	0.658027
299.536	0.741463
299.903	0.797695
300.270	1.060833
300.638	0.691571
301.005	0.643430
301.372	0.687833
301.739	0.667297
302.106	0.666107
302.473	0.603535
302.840	0.570804
303.207	0.553081
303.574	0.461322
303.941	0.519009
304.308	0.538983
304.675	0.564610
305.042	0.567878
305.409	0.599934
305.776	0.744101
306.143	0.809643
306.509	0.926466
306.876	1.184786
307.243	1.047115
307.610	1.071954
307.976	1.159099
308.343	1.306331
308.709	0.000000
309.076	1.397823
309.442	1.699686
309.809	1.329771
310.175	1.949623
310.542	0.000000
310.908	2.078623
311.275	1.644490
311.641	1.672001
312.007	1.803043
312.373	2.848211
312.740	2.100109
313.106	0.000000
313.472	2.032698
313.838	1.921576
314.204	2.068836
314.570	2.448670
314.936	2.190260
315.302	2.313780
315.668	2.331517
316.034	2.164385
316.400	2.628248
316.766	0.000000
317.132	0.000000
317.498	0.000000
317.864	0.000000
318.230	0.000000
318.595	2.489099
318.961	2.163261
319.327	2.254584
319.692	2.229350
320.058	1.924995
320.424	2.125080
320.789	2.003147
321.155	1.992614
321.520	2.326661
321.886	2.303725
322.251	2.621081
322.616	2.701541
322.982	2.747288
323.347	0.000000
323.712	0.000000
324.078	2.867605
324.443	2.603492
324.808	2.306681
325.173	2.232858
325.539	2.298522
325.904	2.226162
326.269	2.091709
326.634	2.063445
326.999	2.151144
327.364	2.220055
327.729	2.244694
328.094	2.377942
328.459	2.412128
328.823	2.259230
329.188	2.293565
329.553	2.345759
329.918	2.307964
330.283	2.314862
330.647	2.336870
331.012	2.532333
331.377	2.406829
331.741	2.446048
332.106	2.516327
332.470	2.859478
332.835	3.284780
333.199	3.415921
333.564	2.709694
333.928	2.687070
334.293	2.494001
334.657	2.512941
335.021	2.556691
335.386	2.702850
335.750	2.520587
336.114	2.347563
336.478	2.341765
336.843	2.426360
337.207	2.463533
337.571	2.442508
337.935	2.486352
338.299	2.545708
338.663	2.410584
339.027	2.391894
339.391	2.484131
339.755	2.550462
340.119	2.537726
340.483	2.631124
340.846	2.651046
341.210	2.625966
341.574	2.450211
341.938	2.537742
342.301	2.607632
342.665	2.577201
343.029	2.576351
343.392	2.577773
343.756	2.468228
344.119	2.522540
344.483	2.476460
344.846	2.551594
345.210	2.537128
345.573	2.471097
345.937	2.522630
346.300	2.518664
346.663	2.408266
347.027	2.479693
347.390	2.447836
347.753	2.471300
348.116	2.432164
348.479	2.413635
348.843	2.427873
349.206	2.421368
349.569	2.479981
349.932	2.480201
350.295	2.418439
350.658	2.431048
351.021	2.449636
351.383	2.415631
351.746	2.409457
352.109	2.363540
352.472	2.435959
352.835	2.383172
353.197	2.480678
353.560	2.457789
353.923	2.444786
354.285	2.430420
354.648	2.531659
355.011	2.607847
355.373	2.633990
355.736	2.510440
356.098	2.530596
356.461	2.426220
356.823	2.499726
357.185	2.486952
357.548	2.495644
357.910	2.466829
358.272	2.402125
358.635	2.489774
358.997	2.486708
359.359	2.434448
359.721	2.560729
360.083	2.555181
360.445	2.525403
360.807	2.503393
361.169	2.445810
361.531	2.445378
361.893	2.406782
362.255	2.379034
362.617	2.381340
362.979	2.318389
363.341	2.333748
363.703	2.362170
364.064	2.370006
364.426	2.457154
364.788	2.510235
365.149	2.476080
365.511	2.494822
365.873	2.483490
366.234	2.503042
366.596	2.510080
366.957	2.550860
367.319	2.520467
367.680	2.475156
368.042	2.455646
368.403	2.514525
368.764	2.488468
369.126	2.471813
369.487	2.440441
369.848	2.410447
370.209	2.405284
370.570	2.401261
370.931	2.450326
371.293	2.429361
371.654	2.457580
372.015	2.569534
372.376	2.610110
372.737	2.689221
373.098	2.703144
373.458	2.713605
373.819	2.846478
374.180	2.714976
374.541	2.650024
374.902	2.546968
375.263	2.499661
375.623	2.524036
375.984	2.491573
376.345	2.514098
376.705	2.535964
377.066	2.539473
377.426	2.605910
377.787	2.702598
378.147	2.719990
378.508	2.824744
378.868	2.899935
379.228	2.914083
379.589	2.748632
379.949	2.621942
380.309	2.545033
380.670	2.497893
381.030	2.516010
381.390	2.541654
381.750	2.477225
382.110	2.450850
382.470	2.486519
382.830	2.520916
383.190	2.507117
383.550	2.475771
383.910	2.499935
384.270	2.490694
384.630	2.467175
384.990	2.468314
385.350	2.516549
385.709	2.535277
386.069	2.546509
386.429	2.615363
386.788	2.770662
387.148	2.904021
387.508	2.945267
387.867	3.068746
388.227	3.123422
388.586	3.126343
388.946	2.869020
389.305	2.860259
389.665	2.908242
390.024	2.730245
390.383	2.672255
390.743	2.618618
391.102	2.640742
391.461	2.693945
391.820	2.627723
392.179	2.664278
392.539	2.676068
392.898	2.608366
393.257	2.603615
393.616	2.582030
393.975	2.639301
394.334	2.576380
394.693	2.504836
395.051	2.529109
395.410	2.458362
395.769	2.498747
396.128	2.470396
396.487	2.477983
396.845	2.439627
397.204	2.420938
397.563	2.419499
397.921	2.479510
398.280	2.458705
398.638	2.547226
398.997	2.479069
399.355	2.603204
399.714	2.723258
400.072	2.732250
400.431	2.708198
400.789	2.717504
401.147	2.576194
401.506	2.586943
401.864	2.578499
402.222	2.599427
402.580	2.521726
402.938	2.458771
403.297	2.496713
403.655	2.507747
404.013	2.521195
404.371	2.610244
404.729	2.588022
405.087	2.564062
405.444	2.519763
405.802	2.485979
406.160	2.468890
406.518	2.446763
406.876	2.491338
407.233	2.465166
407.591	2.462366
407.949	2.437087
408.306	2.438917
408.664	2.539668
409.022	2.589578
409.379	2.662752
409.737	2.643467
410.094	2.561514
410.451	2.575615
410.809	2.580103
411.166	2.707281
411.523	2.804222
411.881	2.704701
412.238	2.584514
412.595	2.583752
412.952	2.645699
413.310	2.641608
413.667	2.696656
414.024	2.662685
414.381	2.589035
414.738	2.510088
415.095	2.500609
415.452	2.579204
415.809	2.528511
416.165	2.452958
416.522	2.448077
416.879	2.426333
417.236	2.415937
417.593	2.444680
417.949	2.447601
418.306	2.406441
418.663	2.412857
419.019	2.443697
419.376	2.447381
419.732	2.450686
420.089	2.394091
420.445	2.375269
420.802	2.374303
421.158	2.384084
421.514	2.414935
421.871	2.391111
422.227	2.384907
422.583	2.437037
422.939	2.435982
423.295	2.451263
423.652	2.441845
424.008	2.380301
424.364	2.421542
424.720	2.400595
425.076	2.390034
425.432	2.360888
425.788	2.312146
426.143	2.309783
426.499	2.313996
426.855	2.345783
427.211	2.379782
427.567	2.312232
427.922	2.343596
428.278	2.336624
428.634	2.354116
428.989	2.337074
429.345	2.351620
429.700	2.337079
430.056	2.335695
430.411	2.343410
430.767	2.329094
431.122	2.286706
431.478	2.339802
431.833	2.353427
432.188	2.368368
432.543	2.329321
432.899	2.383031
433.254	2.384285
433.609	2.375441
433.964	2.385054
434.319	2.422077
434.674	2.389458
435.029	2.358658
435.384	2.382479
435.739	2.382035
436.094	2.325890
436.449	2.303284
436.804	2.253714
437.158	2.285275
437.513	2.270624
437.868	2.244317
438.223	2.266202
438.577	2.264749
438.932	2.261067
439.287	2.287598
439.641	2.283913
439.996	2.334710
440.350	2.343853
440.704	2.365666
441.059	2.346547
441.413	2.296628
441.768	2.265768
442.122	2.299320
442.476	2.284990
442.830	2.272321
443.185	2.258639
443.539	2.242822
443.893	2.199308
444.247	2.207315
444.601	2.197243
444.955	2.180279
445.309	2.133550
445.663	2.125414
446.017	2.119919
446.371	2.110007
446.724	2.099028
447.078	2.109217
447.432	2.108443
447.786	2.100759
448.139	2.126571
448.493	2.151144
448.847	2.136591
449.200	2.107858
449.554	2.102402
449.907	2.085634
450.261	2.077909
450.614	2.050628
450.968	2.080668
451.321	2.050457
451.674	2.015100
452.027	1.999414
452.381	2.033038
452.734	2.017899
453.087	2.028980
453.440	2.047272
453.793	2.071185
454.146	2.063439
454.499	2.069897
454.852	2.112064
455.205	2.121525
455.558	2.101097
455.911	2.099433
456.264	2.088212
456.617	2.073659
456.970	2.061800
457.322	2.041613
457.675	2.047609
458.028	2.026963
458.380	2.020393
458.733	1.999022
459.086	2.010169
459.438	2.016246
459.791	1.992359
460.143	1.975056
460.496	1.970188
460.848	1.963467
461.200	1.944255
461.553	1.958346
461.905	1.975314
462.257	1.943030
462.609	1.920501
462.961	1.911899
463.314	1.918218
463.666	1.911968
464.018	1.922869
464.370	1.922804
464.722	1.902318
465.074	1.895345
465.426	1.912358
465.777	1.911336
466.129	1.914105
466.481	1.911704
466.833	1.898651
467.184	1.864004
467.536	1.871081
467.888	1.870917
468.239	1.854704
468.591	1.832433
468.943	1.836590
469.294	1.842386
469.646	1.836612
469.997	1.828406
470.348	1.839477
470.700	1.826063
471.051	1.819259
471.402	1.818042
471.754	1.827821
472.105	1.830794
472.456	1.813258
472.807	1.803388
473.158	1.806962
473.509	1.797150
473.860	1.788826
474.211	1.787406
474.562	1.786903
474.913	1.775326
475.264	1.765829
475.615	1.758152
475.966	1.756813
476.316	1.751503
476.667	1.757907
477.018	1.752695
477.368	1.751478
477.719	1.756388
478.070	1.753547
478.420	1.738328
478.771	1.736315
479.121	1.740404
479.472	1.738362
479.822	1.722737
480.172	1.727525
480.523	1.728855
480.873	1.724737
481.223	1.719120
481.573	1.725103
481.924	1.726712
482.274	1.714275
482.624	1.714614
482.974	1.716491
483.324	1.707817
483.674	1.701689
484.024	1.695891
484.374	1.692466
484.724	1.686496
485.073	1.683429
485.423	1.682620
485.773	1.681950
486.123	1.680862
486.472	1.678334
486.822	1.673303
487.172	1.669886
487.521	1.668374
487.871	1.665857
488.220	1.661008
488.570	1.657799
488.919	1.652911
489.268	1.651501
489.618	1.652702
489.967	1.648746
490.316	1.647201
490.666	1.638273
491.015	1.633093
491.364	1.635093
491.713	1.634730
492.062	1.628123
492.411	1.623409
492.760	1.616412
493.109	1.619344
493.458	1.617470
493.807	1.615985
494.156	1.613085
494.505	1.608057
494.853	1.602978
495.202	1.601317
495.551	1.597368
495.900	1.597303
496.248	1.591517
496.597	1.584305
496.945	1.581199
497.294	1.579669
497.642	1.576269
497.991	1.572680
498.339	1.573927
498.688	1.565546
499.036	1.561086
499.384	1.551238
499.732	1.550928
500.081	1.554093
500.429	1.556280
500.777	1.553997
501.125	1.548697
501.473	1.541220
501.821	1.543113
502.169	1.539195
502.517	1.544183
502.865	1.539950
503.213	1.533538
503.561	1.527403
503.908	1.521695
504.256	1.520896
504.604	1.519742
504.952	1.512640
505.299	1.511195
505.647	1.507518
505.994	1.506511
506.342	1.505590
506.689	1.500142
507.037	1.498659
507.384	1.492629
507.732	1.490771
508.079	1.490035
508.426	1.484889
508.774	1.482397
509.121	1.476067
509.468	1.472329
509.815	1.472089
510.162	1.470808
510.509	1.473498
510.856	1.466562
511.203	1.460487
511.550	1.462030
511.897	1.456529
512.244	1.455687
512.591	1.453676
512.938	1.451755
513.284	1.449010
513.631	1.439117
513.978	1.436254
514.324	1.434892
514.671	1.430031
515.018	1.429201
515.364	1.429513
515.711	1.427844
516.057	1.422987
516.403	1.418754
516.750	1.419759
517.096	1.417097
517.443	1.417803
517.789	1.413611
518.135	1.411000
518.481	1.405151
518.827	1.395922
519.173	1.392365
519.519	1.390647
519.865	1.386744
520.211	1.385203
520.557	1.381914
520.903	1.379908
521.249	1.371322
521.595	1.373529
521.941	1.374119
522.287	1.376218
522.632	1.376827
522.978	1.372443
523.324	1.372771
523.669	1.367709
524.015	1.367639
524.360	1.372669
524.706	1.367208
525.051	1.367003
525.397	1.361165
525.742	1.356962
526.087	1.360367
526.433	1.355427
526.778	1.357364
527.123	1.353185
527.468	1.346997
527.813	1.339795
528.158	1.338830
528.504	1.334838
528.849	1.333900
529.193	1.328842
529.538	1.327313
529.883	1.321015
530.228	1.319384
530.573	1.315448
530.918	1.314097
531.263	1.312585
531.607	1.311167
531.952	1.303216
532.296	1.301926
532.641	1.298649
532.986	1.298334
533.330	1.296806
533.675	1.297375
534.019	1.293944
534.363	1.289525
534.708	1.288130
535.052	1.287734
535.396	1.282278
535.741	1.279154
536.085	1.275022
536.429	1.269913
536.773	1.267483
537.117	1.267623
537.461	1.263710
537.805	1.261343
538.149	1.260959
538.493	1.259394
538.837	1.253963
539.181	1.250430
539.524	1.249808
539.868	1.245982
540.212	1.240715
540.556	1.236021
540.899	1.233442
541.243	1.227153
541.586	1.225246
541.930	1.224351
542.273	1.222946
542.617	1.217415
542.960	1.214146
543.304	1.211669
543.647	1.209743
543.990	1.206944
544.333	1.204162
544.677	1.198792
545.020	1.195870
545.363	1.193005
545.706	1.190590
546.049	1.185691
546.392	1.182416
546.735	1.180609
547.078	1.174951
547.421	1.172361
547.764	1.170554
548.106	1.166940
548.449	1.160839
548.792	1.158898
549.135	1.155699
549.477	1.152311
549.820	1.148485
550.162	1.143685
550.505	1.138249
550.847	1.133511
551.190	1.126426
551.532	1.122299
551.875	1.114071
552.217	1.109584
552.559	1.100920
552.901	1.094298
553.244	1.088188
553.586	1.083275
553.928	1.078355
554.270	1.075171
554.612	1.072392
554.954	1.069444
555.296	1.065828
555.638	1.064416
555.980	1.060834
556.322	1.059237
556.663	1.056029
557.005	1.052449
557.347	1.048765
557.689	1.041192
558.030	1.035598
558.372	1.028232
558.713	1.023253
559.055	1.018413
559.396	1.013189
559.738	1.007343
560.079	1.002338
560.421	0.996113
560.762	0.992219
561.103	0.989095
561.444	0.988237
561.786	0.983282
562.127	0.976940
562.468	0.971513
562.809	0.966866
563.150	0.961028
563.491	0.956461
563.832	0.949956
564.173	0.944232
564.514	0.936903
564.855	0.931647
565.195	0.926352
565.536	0.922224
565.877	0.916591
566.218	0.912368
566.558	0.907586
566.899	0.904315
567.239	0.899533
567.580	0.894135
567.920	0.889035
568.261	0.886278
568.601	0.881085
568.941	0.877513
569.282	0.872854
569.622	0.868984
569.962	0.864502
570.302	0.859770
570.643	0.855966
570.983	0.851675
571.323	0.846435
571.663	0.841921
572.003	0.836753
572.343	0.831654
572.683	0.826647
573.022	0.821774
573.362	0.816933
573.702	0.808592
574.042	0.797248
574.381	0.786102
574.721	0.774995
575.061	0.763190
575.400	0.750641
575.740	0.737760
576.079	0.725051
576.419	0.712208
576.758	0.700666
577.097	0.690533
577.437	0.682865
577.776	0.677893
578.115	0.673907
578.454	0.669055
578.794	0.661804
579.133	0.651967
579.472	0.640725
579.811	0.627599
580.150	0.613579
580.489	0.601688
580.828	0.592819
581.167	0.589377
581.505	0.591697
581.844	0.599008
582.183	0.609313
582.522	0.621182
582.860	0.633355
583.199	0.645394
583.538	0.654351
583.876	0.659945
584.215	0.661931
584.553	0.661246
584.891	0.659810
585.230	0.659194
585.568	0.659452
585.906	0.661765
586.245	0.666061
586.583	0.672530
586.921	0.681375
587.259	0.687585
587.597	0.686104
587.935	0.684550
588.273	0.683472
588.611	0.682478
588.949	0.680871
589.287	0.679680
589.625	0.677937
589.963	0.675697
590.300	0.673087
590.638	0.670109
590.976	0.667453
591.313	0.664428
591.651	0.662280
591.989	0.659814
592.326	0.657413
592.664	0.656187
593.001	0.654592
593.338	0.653260
593.676	0.652096
594.013	0.650493
594.350	0.649497
594.687	0.647889
595.025	0.646337
595.362	0.644823
595.699	0.642936
596.036	0.640891
596.373	0.638301
596.710	0.635471
597.047	0.633424
597.384	0.630745
597.720	0.628586
598.057	0.626496
598.394	0.624855
598.731	0.622594
599.067	0.620927
599.404	0.619562
599.741	0.618344
600.077	0.616609
600.414	0.615157
600.750	0.613814
601.087	0.612443
601.423	0.611069
601.759	0.609696
602.096	0.608121
602.432	0.606476
602.768	0.605740
603.104	0.604466
603.440	0.603415
603.776	0.601173
604.112	0.600115
604.448	0.598218
604.784	0.596334
605.120	0.594664
605.456	0.593237
605.792	0.590737
606.128	0.589211
606.463	0.587517
606.799	0.586431
607.135	0.584441
607.470	0.583209
607.806	0.582385
608.142	0.580990
608.477	0.579094
608.812	0.577908
609.148	0.577206
609.483	0.575746
609.819	0.574669
610.154	0.573488
610.489	0.571944
610.824	0.570328
611.159	0.569308
611.494	0.568731
611.830	0.567557
612.165	0.565246
612.500	0.564306
612.834	0.563537
613.169	0.562657
613.504	0.562272
613.839	0.561793
614.174	0.560338
614.509	0.558796
614.843	0.557904
615.178	0.557119
615.512	0.555995
615.847	0.554551
616.182	0.553160
616.516	0.551836
616.850	0.550355
617.185	0.549891
617.519	0.549162
617.853	0.548107
618.188	0.546547
618.522	0.544841
618.856	0.544080
619.190	0.542675
619.524	0.540817
619.858	0.539321
620.192	0.537865
620.526	0.536716
620.860	0.534855
621.194	0.533747
621.528	0.533475
621.862	0.531358
622.195	0.530964
622.529	0.530464
622.863	0.529948
623.196	0.529237
623.530	0.528021
623.864	0.527361
624.197	0.526850
624.530	0.525277
624.864	0.525087
625.197	0.523492
625.531	0.522450
625.864	0.521572
626.197	0.520154
626.530	0.520352
626.863	0.518728
627.196	0.518657
627.529	0.517023
627.862	0.515647
628.195	0.514974
628.528	0.514193
628.861	0.513037
629.194	0.512374
629.527	0.509741
629.860	0.509527
630.192	0.507281
630.525	0.507903
630.858	0.506519
631.190	0.505236
631.523	0.504271
631.855	0.503283
632.188	0.503055
632.520	0.503124
632.852	0.502100
633.185	0.501048
633.517	0.499931
633.849	0.500584
634.182	0.500354
634.514	0.500370
634.846	0.499194
635.178	0.497712
635.510	0.496289
635.842	0.496467
636.174	0.496370
636.506	0.493853
636.837	0.490803
637.169	0.490383
637.501	0.487817
637.833	0.487656
638.164	0.486689
638.496	0.487974
638.828	0.486685
639.159	0.485042
639.491	0.486310
639.822	0.488431
640.154	0.486799
640.485	0.486403
640.816	0.485582
641.147	0.485203
641.479	0.483013
641.810	0.480755
642.141	0.480967
642.472	0.478865
642.803	0.474968
643.134	0.474796
643.465	0.473661
643.796	0.471780
644.127	0.470155
644.458	0.469710
644.789	0.470103
645.119	0.469954
645.450	0.469359
645.781	0.471941
646.111	0.470672
646.442	0.470274
646.773	0.471062
647.103	0.472054
647.433	0.470484
647.764	0.470552
648.094	0.468149
648.425	0.468065
648.755	0.466961
649.085	0.468557
649.415	0.467590
649.745	0.466502
650.075	0.465531
650.405	0.464678
650.735	0.461654
651.065	0.460883
651.395	0.461001
651.725	0.458450
652.055	0.455043
652.385	0.455612
652.715	0.455115
653.044	0.414601
653.374	0.319064
653.704	0.237102
654.033	0.174372
654.363	0.135807
654.692	0.109951
655.022	0.079558
655.351	0.020256
655.680	-0.000000
656.010	-0.000000
656.339	0.009023
656.668	0.047801
656.997	0.104250
657.326	0.172805
657.655	0.229955
657.984	0.289321
658.313	0.369754
658.642	0.426151
658.971	0.458699
659.300	0.453156
659.629	0.453202
659.958	0.450700
660.286	0.447668
660.615	0.446461
660.944	0.445351
661.272	0.444608
661.601	0.445032
661.929	0.442887
662.258	0.440858
662.586	0.437214
662.915	0.436717
663.243	0.435155
663.571	0.434611
663.899	0.433662
664.228	0.431450
664.556	0.429478
664.884	0.428150
665.212	0.426423
665.540	0.427024
665.868	0.429974
666.196	0.430618
666.524	0.430005
666.852	0.433107
667.179	0.434708
667.507	0.432512
667.835	0.431449
668.162	0.431844
668.490	0.432718
668.818	0.427736
669.145	0.427468
669.473	0.428396
669.800	0.425476
670.127	0.424598
670.455	0.425260
670.782	0.425241
671.109	0.424517
671.436	0.423410
671.764	0.424136
672.091	0.422551
672.418	0.420651
672.745	0.419857
673.072	0.418442
673.399	0.417264
673.726	0.417079
674.053	0.415689
674.379	0.415031
674.706	0.414860
675.033	0.413979
675.359	0.413804
675.686	0.414336
676.013	0.412315
676.339	0.410668
676.666	0.409679
676.992	0.409675
677.318	0.409426
677.645	0.406868
677.971	0.406882
678.297	0.406641
678.624	0.405876
678.950	0.406725
679.276	0.407407
679.602	0.406971
679.928	0.406099
680.254	0.404826
680.580	0.406742
680.906	0.407401
681.232	0.407987
681.558	0.407816
681.883	0.406576
682.209	0.406011
682.535	0.404262
682.860	0.404479
683.186	0.403937
683.511	0.403020
683.837	0.400630
684.162	0.398940
684.488	0.398464
684.813	0.397757
685.138	0.397147
685.464	0.398722
685.789	0.399256
686.114	0.397936
686.439	0.396708
686.764	0.396929
687.089	0.396785
687.414	0.395484
687.739	0.395330
688.064	0.395869
688.389	0.392946
688.714	0.392524
689.039	0.393103
689.363	0.392596
689.688	0.392529
690.013	0.391753
690.337	0.391189
690.662	0.390308
690.986	0.388343
691.311	0.388549
691.635	0.386890
691.959	0.386859
692.284	0.385457
692.608	0.385371
692.932	0.385916
693.256	0.386616
693.580	0.386327
693.904	0.385213
694.228	0.385759
694.552	0.386052
694.876	0.385459
695.200	0.384964
695.524	0.385090
695.848	0.384036
696.172	0.383027
696.495	0.383503
696.819	0.383612
697.143	0.382354
697.466	0.380840
697.790	0.379161
698.113	0.380379
698.437	0.378426
698.760	0.377316
699.083	0.375706
699.407	0.374052
699.730	0.374568
700.053	0.372677
700.376	0.371578
700.699	0.372428
701.022	0.370048
701.345	0.369346
701.668	0.368098
701.991	0.368857
702.314	0.370017
702.637	0.368963
702.960	0.370459
703.283	0.372038
703.605	0.371920
703.928	0.372961
704.251	0.374172
704.573	0.376720
704.896	0.375614
705.218	0.374032
705.540	0.374517
705.863	0.374285
706.185	0.373549
706.507	0.373773
706.830	0.372994
707.152	0.372010
707.474	0.370269
707.796	0.370532
708.118	0.371499
708.440	0.369547
708.762	0.368657
709.084	0.367269
709.406	0.365820
709.728	0.366196
710.049	0.364727
710.371	0.364662
710.693	0.363568
711.014	0.363723
711.336	0.365230
711.658	0.363171
711.979	0.363552
712.301	0.363897
712.622	0.364611
712.943	0.365434
713.265	0.365894
713.586	0.365097
713.907	0.362120
714.228	0.362878
714.549	0.364066
714.870	0.364782
715.191	0.363702
715.512	0.361583
715.833	0.362631
716.154	0.360502
716.475	0.361363
716.796	0.361994
717.117	0.359404
717.437	0.359372
717.758	0.356190
718.078	0.356108
718.399	0.354681
718.719	0.352047
719.040	0.352031
719.360	0.350709
719.681	0.350066
720.001	0.349143
720.321	0.349760
720.642	0.349535
720.962	0.348796
721.282	0.348710
721.602	0.349331
721.922	0.350891
722.242	0.351956
722.562	0.351791
722.882	0.353012
723.202	0.350936
723.521	0.350342
723.841	0.349275
724.161	0.349198
724.481	0.348968
724.800	0.348116
725.120	0.346742
725.439	0.346528
725.759	0.345165
726.078	0.344053
726.398	0.345105
726.717	0.345309
727.036	0.344314
727.355	0.343389
727.675	0.340901
727.994	0.342737
728.313	0.342876
728.632	0.341271
728.951	0.341377
729.270	0.339369
729.589	0.338561
729.908	0.339782
730.226	0.339520
730.545	0.340203
730.864	0.337742
731.182	0.336918
731.501	0.338088
731.820	0.337699
732.138	0.338675
732.457	0.338171
732.775	0.336175
733.093	0.335258
733.412	0.335345
733.730	0.335150
734.048	0.332445
734.367	0.331734
734.685	0.330842
735.003	0.329410
735.321	0.328805
735.639	0.327830
735.957	0.326674
736.275	0.325722
736.593	0.325213
736.910	0.326265
737.228	0.324210
737.546	0.324490
737.863	0.324426
738.181	0.322510
738.499	0.323346
738.816	0.323950
739.134	0.322823
739.451	0.322716
739.768	0.323423
740.086	0.325302
740.403	0.323708
740.720	0.322806
741.038	0.324212
741.355	0.323871
741.672	0.323748
741.989	0.324068
742.306	0.322565
742.623	0.321866
742.940	0.319685
743.257	0.320314
743.573	0.318284
743.890	0.317441
744.207	0.317884
744.523	0.317006
744.840	0.314583
745.157	0.314770
745.473	0.315032
745.790	0.313486
746.106	0.314211
746.422	0.315727
746.739	0.315456
747.055	0.313424
747.371	0.312344
747.687	0.315012
748.004	0.313608
748.320	0.312877
748.636	0.314287
748.952	0.313197
749.268	0.312393
749.584	0.312526
749.899	0.312196
750.215	0.311442
750.531	0.308768
750.847	0.308175
751.162	0.307462
751.478	0.306020
751.793	0.305907
752.109	0.306914
752.424	0.306428
752.740	0.305881
753.055	0.306925
753.370	0.307568
753.686	0.306845
754.001	0.306022
754.316	0.304743
754.631	0.302632
754.946	0.301880
755.261	0.302123
755.576	0.301411
755.891	0.301284
756.206	0.301152
756.521	0.302009
756.836	0.302632
757.150	0.302977
757.465	0.304369
757.780	0.303869
758.094	0.303706
758.409	0.302595
758.723	0.303031
759.038	0.303250
759.352	0.301500
759.667	0.301383
759.981	0.301672
760.295	0.299898
760.609	0.299950
760.923	0.298309
761.238	0.299727
761.552	0.297820
761.866	0.296842
762.180	0.296609
762.493	0.295426
762.807	0.295117
763.121	0.295306
763.435	0.293836
763.749	0.294030
764.062	0.293365
764.376	0.292937
764.689	0.293001
765.003	0.293225
765.316	0.291993
765.630	0.290390
765.943	0.289773
766.257	0.289854
766.570	0.289305
766.883	0.288215
767.196	0.287783
767.509	0.286593
767.822	0.286959
768.135	0.288267
768.448	0.287729
768.761	0.286354
769.074	0.285865
769.387	0.285236
769.700	0.285828
770.013	0.285015
770.325	0.284514
770.638	0.284190
770.950	0.282783
771.263	0.284473
771.575	0.285774
771.888	0.285196
772.200	0.286130
772.513	0.285886
772.825	0.287199
773.137	0.285689
773.449	0.286315
773.761	0.287319
774.074	0.284495
774.386	0.282908
774.698	0.283790
775.010	0.283672
775.321	0.281314
775.633	0.279090
775.945	0.281723
776.257	0.281347
776.568	0.280261
776.880	0.280915
777.192	0.280096
777.503	0.278086
777.815	0.278746
778.126	0.280721
778.438	0.281937
778.749	0.281104
779.060	0.280454
779.372	0.280002
779.683	0.279688
779.994	0.279266
780.305	0.279274
780.616	0.278297
780.927	0.278327
781.238	0.279103
781.549	0.279195
781.860	0.277359
782.171	0.275431
782.481	0.274418
782.792	0.274752
783.103	0.275094
783.413	0.275333
783.724	0.273132
784.034	0.271838
784.345	0.270403
784.655	0.272061
784.966	0.272035
785.276	0.272814
785.586	0.271489
785.896	0.271975
786.207	0.270704
786.517	0.271024
786.827	0.268629
787.137	0.268119
787.447	0.267722
787.757	0.267307
788.066	0.267299
788.376	0.267810
788.686	0.267484
788.996	0.268843
789.305	0.266619
789.615	0.267375
789.925	0.269449
790.234	0.270012
790.544	0.271806
790.853	0.270880
791.162	0.269334
791.472	0.265951
791.781	0.263618
792.090	0.264555
792.399	0.263039
792.708	0.260477
793.017	0.257551
793.326	0.255822
793.635	0.256246
793.944	0.256930
794.253	0.258982
794.562	0.259149
794.871	0.259401
795.179	0.260135
795.488	0.261017
795.797	0.261695
796.105	0.265266
796.414	0.265837
796.722	0.269552
797.031	0.269870
797.339	0.267429
797.647	0.267831
797.956	0.266602
798.264	0.264325
798.572	0.263335
798.880	0.261316
799.188	0.257357
799.496	0.253426
799.804	0.248968
800.112	0.248424
800.420	0.248077
800.728	0.248337
801.035	0.249751
801.343	0.253644
801.651	0.254238
801.958	0.257621
802.266	0.256592
802.573	0.258387
802.881	0.258494
803.188	0.256888
803.496	0.258272
803.803	0.255713
804.110	0.252739
804.417	0.252445
804.724	0.248298
805.032	0.249309
805.339	0.248050
805.646	0.246100
805.953	0.245654
806.259	0.243783
806.566	0.245747
806.873	0.246479
807.180	0.245269
807.486	0.247147
807.793	0.247297
808.100	0.249175
808.406	0.253232
808.713	0.251413
809.019	0.252109
809.326	0.250216
809.632	0.251497
809.938	0.253067
810.244	0.249104
810.551	0.247382
810.857	0.246781
811.163	0.242519
811.469	0.243626
811.775	0.244477
812.081	0.244268
812.387	0.241940
812.692	0.241351
812.998	0.244289
813.304	0.245079
813.610	0.243177
813.915	0.244653
814.221	0.245730
814.526	0.244853
814.832	0.244618
815.137	0.246838
815.443	0.245199
815.748	0.247800
816.053	0.240770
816.358	0.241372
816.664	0.243543
816.969	0.242963
817.274	0.237077
817.579	0.241410
817.884	0.236327
818.189	0.233265
818.493	0.230961
818.798	0.237059
819.103	0.238553
819.408	0.237679
819.712	0.235471
820.017	0.239562
820.321	0.235006
820.626	0.237840
820.930	0.240235
821.235	0.239632
821.539	0.237201
821.843	0.234596
822.148	0.230974
822.452	0.234176
822.756	0.233219
823.060	0.233006
823.364	0.231205
823.668	0.227879
823.972	0.227766
824.276	0.236418
824.580	0.235739
824.883	0.233721
825.187	0.235882
825.491	0.236613
825.795	0.239558
826.098	0.243364
826.402	0.244924
826.705	0.245905
827.008	0.237533
827.312	0.239977
827.615	0.242525
827.918	0.236657
828.222	0.238337
828.525	0.239144
828.828	0.236509
829.131	0.241195
829.434	0.236558
829.737	0.239687
830.040	0.239883
830.343	0.238839
830.645	0.244782
830.948	0.238132
831.251	0.225522
831.553	0.221634
831.856	0.213818
832.159	0.221127
832.461	0.221562
832.764	0.216633
833.066	0.219735
833.368	0.219715
833.671	0.218355
833.973	0.219272
834.275	0.218819
834.577	0.221294
834.879	0.220575
835.181	0.221320
835.483	0.220071
835.785	0.214800
836.087	0.212459
836.389	0.222872
836.690	0.234474
836.992	0.233894
837.294	0.230105
837.595	0.226826
837.897	0.233712
838.198	0.237530
838.500	0.234979
838.801	0.244624
839.103	0.235258
839.404	0.227275
839.705	0.231227
840.006	0.238458
840.307	0.237184
840.608	0.235014
840.910	0.239849
841.210	0.242162
841.511	0.242694
841.812	0.249709
842.113	0.263746
842.414	0.255447
842.715	0.236549
843.015	0.245157
843.316	0.243241
843.616	0.244041
843.917	0.257481
844.217	0.240827
844.518	0.239392
844.818	0.219033
845.118	0.222348
845.419	0.227564
845.719	0.231041
846.019	0.238841
846.319	0.238432
846.619	0.224282
846.919	0.237153
847.219	0.230364
847.519	0.235230
847.819	0.242187
848.118	0.264908
848.418	0.251218
848.718	0.238764
849.017	0.235254
849.317	0.232283
849.616	0.215002
849.916	0.223620
850.215	0.223479
850.515	0.211746
850.814	0.196247
851.113	0.197215
851.412	0.200173
851.712	0.206024
852.011	0.204541
852.310	0.209583
852.609	0.206688
852.908	0.205240
853.206	0.206840
853.505	0.213237
853.804	0.217714
854.103	0.220322
854.401	0.213605
854.700	0.219273
854.999	0.222959
855.297	0.223910
855.595	0.227960
855.894	0.230522
856.192	0.228258
856.491	0.224395
856.789	0.222497
857.087	0.226413
857.385	0.221964
857.683	0.214229
857.981	0.211457
858.279	0.212844
858.577	0.211219
858.875	0.213465
859.173	0.225556
859.471	0.228437
859.768	0.232472
860.066	0.235167
860.363	0.232874
860.661	0.235165
860.959	0.229554
861.256	0.231832
861.553	0.221839
861.851	0.201334
862.148	0.188905
862.445	0.187382
862.742	0.188054
863.039	0.190235
863.337	0.181854
863.634	0.175525
863.931	0.165593
864.227	0.162701
864.524	0.168160
864.821	0.174440
865.118	0.176561
865.415	0.174466
865.711	0.174742
866.008	0.199702
866.304	0.208956
866.601	0.212111
866.897	0.202598
867.194	0.206132
867.490	0.202015
867.786	0.212923
868.082	0.213904
868.379	0.222415
868.675	0.205541
868.971	0.208690
869.267	0.217059
869.563	0.246916
869.859	0.238051
870.154	0.242869
870.450	0.225496
870.746	0.223215
871.042	0.217597
871.337	0.208476
871.633	0.222903
871.928	0.225342
872.224	0.199062
872.519	0.191686
872.815	0.174732
873.110	0.181650
873.405	0.184235
873.700	0.184813
873.995	0.200999
874.291	0.191532
874.586	0.180618
874.881	0.200611
875.175	0.203174
875.470	0.207885
875.765	0.199862
876.060	0.201372
876.355	0.200227
876.649	0.206071
876.944	0.201029
877.238	0.195015
877.533	0.201607
877.827	0.198609
878.122	0.198910
878.416	0.195610
878.710	0.194800
879.005	0.188884
879.299	0.177695
879.593	0.184534
879.887	0.199406
880.181	0.192153
880.475	0.213715
880.769	0.222411
881.063	0.222855
881.356	0.222457
881.650	0.237737
881.944	0.240189
882.238	0.230180
882.531	0.228421
882.825	0.231843
883.118	0.214739
883.412	0.211483
883.705	0.236811
883.998	0.294681
884.291	0.222855
884.585	0.163028
884.878	0.442489
>>>>>>>>>> END of Data <<<<<<<<<<
