Date	2021年06月15日火曜日 05時56分44秒
Spectrometers	USB2+H05879
ダーク	使用
リファレンス	使用
積分時間[msec]	10
平均回数	280
ｽﾑｰｼﾞﾝｸﾞ	10
Electrical Dark	USE
ピクセル数	2048
計測モード	吸光度
保存開始波長[nm]	190.664
保存終了波長[nm]	884.878
保存ﾋﾟｯﾁ波長[nm]	全波長

>>>>>>>>>> Data Start <<<<<<<<<<<<
190.664	0.000000
191.040	0.000000
191.415	0.000000
191.791	-2.547185
192.166	-0.555057
192.542	-0.859960
192.917	0.000000
193.293	-0.440211
193.668	-0.466483
194.044	-1.054173
194.419	0.000000
194.794	-1.427925
195.170	-1.348644
195.545	-1.270419
195.920	-1.136014
196.296	-1.014982
196.671	-0.852700
197.046	-0.701910
197.421	-0.656182
197.796	-0.648936
198.171	-0.615310
198.546	-0.563841
198.922	-0.510453
199.297	-0.485788
199.672	-0.461995
200.047	-0.434611
200.422	-0.401595
200.796	-0.390431
201.171	-0.365402
201.546	-0.363155
201.921	-0.355017
202.296	-0.338440
202.671	-0.313355
203.045	-0.289553
203.420	-0.271586
203.795	-0.257390
204.170	-0.254582
204.544	-0.250237
204.919	-0.246062
205.294	-0.236120
205.668	-0.224206
206.043	-0.212552
206.417	-0.214915
206.792	-0.203175
207.166	-0.197508
207.541	-0.190788
207.915	-0.195726
208.289	-0.183101
208.664	-0.183446
209.038	-0.183233
209.412	-0.166016
209.787	-0.140762
210.161	-0.121775
210.535	-0.128829
210.909	-0.122204
211.284	-0.113711
211.658	-0.120084
212.032	-0.118547
212.406	-0.127237
212.780	-0.125558
213.154	-0.131133
213.528	-0.132414
213.902	-0.125101
214.276	-0.124283
214.650	-0.126617
215.024	-0.120092
215.398	-0.123448
215.772	-0.112010
216.145	-0.110284
216.519	-0.107292
216.893	-0.109621
217.267	-0.116100
217.640	-0.129214
218.014	-0.125820
218.388	-0.107558
218.761	-0.107450
219.135	-0.098201
219.508	-0.099238
219.882	-0.107757
220.256	-0.103278
220.629	-0.100973
221.003	-0.098577
221.376	-0.095545
221.749	-0.100358
222.123	-0.100260
222.496	-0.108706
222.869	-0.102642
223.243	-0.098125
223.616	-0.102680
223.989	-0.109322
224.362	-0.100191
224.736	-0.095684
225.109	-0.094741
225.482	-0.088096
225.855	-0.093741
226.228	-0.099913
226.601	-0.098538
226.974	-0.097603
227.347	-0.090017
227.720	-0.081612
228.093	-0.083436
228.466	-0.084291
228.839	-0.080635
229.212	-0.082847
229.585	-0.086342
229.957	-0.083272
230.330	-0.080267
230.703	-0.083901
231.076	-0.089468
231.448	-0.091355
231.821	-0.091123
232.194	-0.090459
232.566	-0.099946
232.939	-0.103217
233.311	-0.113093
233.684	-0.110086
234.056	-0.114395
234.429	-0.113077
234.801	-0.122247
235.174	-0.120690
235.546	-0.118639
235.918	-0.118357
236.291	-0.118853
236.663	-0.108081
237.035	-0.102780
237.408	-0.088400
237.780	-0.080618
238.152	-0.079288
238.524	-0.082202
238.896	-0.074943
239.268	-0.073997
239.641	-0.071613
240.013	-0.071782
240.385	-0.065453
240.757	-0.065777
241.129	-0.060313
241.500	-0.066031
241.872	-0.060603
242.244	-0.056768
242.616	-0.057234
242.988	-0.056976
243.360	-0.054223
243.731	-0.050103
244.103	-0.048434
244.475	-0.059111
244.847	-0.057160
245.218	-0.053041
245.590	-0.050955
245.961	-0.044582
246.333	-0.041773
246.705	-0.039774
247.076	-0.033628
247.448	-0.030248
247.819	-0.029570
248.190	-0.021904
248.562	-0.018307
248.933	-0.017116
249.305	-0.010168
249.676	-0.006694
250.047	-0.015798
250.418	-0.013081
250.790	-0.006371
251.161	-0.007767
251.532	-0.007542
251.903	-0.009561
252.274	-0.001924
252.645	0.007018
253.016	-0.004490
253.387	-0.013071
253.758	-0.018287
254.129	-0.016747
254.500	-0.011001
254.871	-0.006016
255.242	-0.006612
255.613	-0.006518
255.984	-0.013146
256.355	-0.013001
256.725	-0.012719
257.096	-0.010457
257.467	-0.010357
257.838	-0.004508
258.208	-0.003545
258.579	-0.008220
258.949	-0.007534
259.320	-0.003766
259.690	0.000275
260.061	-0.001526
260.431	-0.003918
260.802	-0.002613
261.172	0.000195
261.543	0.004904
261.913	0.006885
262.283	0.000842
262.654	-0.009464
263.024	-0.010779
263.394	-0.005620
263.764	0.002132
264.135	0.002459
264.505	0.008847
264.875	0.009646
265.245	0.011879
265.615	0.013736
265.985	0.016737
266.355	0.019040
266.725	0.021106
267.095	0.026238
267.465	0.023082
267.835	0.025393
268.205	0.022114
268.575	0.032857
268.944	0.035008
269.314	0.036952
269.684	0.038969
270.054	0.036523
270.423	0.038979
270.793	0.043453
271.163	0.045913
271.532	0.041297
271.902	0.046460
272.271	0.045359
272.641	0.046961
273.010	0.037130
273.380	0.031840
273.749	0.032692
274.119	0.033786
274.488	0.037633
274.857	0.034161
275.227	0.037176
275.596	0.034802
275.965	0.036946
276.335	0.029003
276.704	0.027925
277.073	0.030039
277.442	0.032103
277.811	0.035780
278.180	0.041871
278.549	0.041524
278.918	0.037407
279.287	0.041844
279.656	0.045644
280.025	0.045774
280.394	0.036937
280.763	0.047416
281.132	0.057191
281.501	0.062099
281.869	0.062204
282.238	0.058041
282.607	0.051215
282.976	0.053749
283.344	0.057756
283.713	0.055076
284.081	0.052035
284.450	0.057055
284.819	0.058648
285.187	0.063151
285.556	0.063300
285.924	0.056842
286.292	0.055149
286.661	0.056630
287.029	0.057849
287.398	0.053460
287.766	0.050372
288.134	0.055830
288.502	0.055790
288.871	0.051699
289.239	0.054343
289.607	0.055200
289.975	0.056878
290.343	0.067737
290.711	0.067492
291.079	0.067016
291.447	0.071331
291.815	0.072027
292.183	0.067925
292.551	0.063565
292.919	0.059009
293.287	0.062802
293.655	0.072280
294.022	0.076560
294.390	0.081537
294.758	0.081153
295.126	0.079098
295.493	0.084675
295.861	0.090916
296.229	0.087222
296.596	0.092335
296.964	0.088529
297.331	0.089514
297.699	0.096427
298.066	0.098715
298.434	0.105407
298.801	0.106797
299.168	0.106995
299.536	0.111723
299.903	0.113966
300.270	0.119096
300.638	0.125959
301.005	0.133813
301.372	0.140323
301.739	0.144959
302.106	0.150109
302.473	0.153926
302.840	0.168469
303.207	0.187962
303.574	0.201484
303.941	0.214794
304.308	0.225816
304.675	0.233707
305.042	0.253152
305.409	0.267365
305.776	0.280599
306.143	0.294976
306.509	0.313257
306.876	0.337063
307.243	0.358992
307.610	0.392018
307.976	0.415085
308.343	0.439635
308.709	0.467644
309.076	0.497419
309.442	0.524488
309.809	0.549055
310.175	0.586041
310.542	0.613507
310.908	0.630721
311.275	0.656032
311.641	0.686454
312.007	0.714457
312.373	0.745809
312.740	0.771919
313.106	0.801324
313.472	0.835726
313.838	0.867400
314.204	0.895170
314.570	0.921116
314.936	0.951357
315.302	0.973981
315.668	0.998020
316.034	1.025797
316.400	1.054908
316.766	1.068062
317.132	1.092457
317.498	1.116786
317.864	1.129414
318.230	1.147549
318.595	1.168955
318.961	1.184898
319.327	1.203617
319.692	1.214949
320.058	1.222761
320.424	1.236769
320.789	1.249338
321.155	1.261843
321.520	1.273102
321.886	1.290646
322.251	1.301217
322.616	1.311521
322.982	1.316797
323.347	1.324939
323.712	1.335980
324.078	1.339483
324.443	1.347729
324.808	1.353681
325.173	1.360318
325.539	1.370720
325.904	1.376073
326.269	1.382535
326.634	1.388059
326.999	1.394929
327.364	1.401522
327.729	1.411265
328.094	1.415982
328.459	1.418260
328.823	1.420244
329.188	1.424960
329.553	1.427351
329.918	1.431495
330.283	1.433321
330.647	1.439197
331.012	1.443904
331.377	1.444385
331.741	1.445627
332.106	1.450408
332.470	1.452927
332.835	1.454963
333.199	1.455256
333.564	1.458967
333.928	1.460682
334.293	1.461028
334.657	1.459470
335.021	1.461293
335.386	1.461648
335.750	1.461412
336.114	1.462361
336.478	1.464323
336.843	1.463696
337.207	1.462920
337.571	1.464302
337.935	1.465578
338.299	1.465119
338.663	1.463349
339.027	1.464453
339.391	1.464799
339.755	1.463067
340.119	1.462610
340.483	1.461860
340.846	1.462905
341.210	1.463134
341.574	1.462689
341.938	1.462556
342.301	1.463718
342.665	1.463537
343.029	1.463905
343.392	1.465040
343.756	1.465602
344.119	1.465179
344.483	1.466112
344.846	1.466990
345.210	1.467806
345.573	1.468242
345.937	1.468407
346.300	1.469661
346.663	1.470106
347.027	1.471374
347.390	1.472052
347.753	1.471841
348.116	1.471737
348.479	1.471850
348.843	1.470971
349.206	1.470573
349.569	1.470648
349.932	1.471061
350.295	1.471531
350.658	1.471949
351.021	1.472926
351.383	1.474051
351.746	1.474829
352.109	1.474893
352.472	1.475097
352.835	1.474589
353.197	1.475064
353.560	1.476223
353.923	1.476327
354.285	1.476459
354.648	1.477276
355.011	1.478004
355.373	1.478939
355.736	1.480269
356.098	1.481296
356.461	1.482272
356.823	1.483131
357.185	1.485308
357.548	1.486238
357.910	1.486568
358.272	1.486973
358.635	1.485747
358.997	1.485519
359.359	1.486784
359.721	1.488152
360.083	1.489743
360.445	1.490701
360.807	1.491419
361.169	1.490918
361.531	1.492315
361.893	1.493055
362.255	1.494115
362.617	1.495507
362.979	1.496402
363.341	1.495563
363.703	1.495926
364.064	1.496653
364.426	1.497454
364.788	1.498285
365.149	1.499084
365.511	1.499712
365.873	1.500766
366.234	1.502421
366.596	1.504120
366.957	1.504366
367.319	1.504497
367.680	1.505059
368.042	1.504862
368.403	1.505537
368.764	1.507428
369.126	1.507732
369.487	1.508274
369.848	1.508568
370.209	1.509031
370.570	1.510188
370.931	1.512520
371.293	1.513413
371.654	1.514532
372.015	1.516555
372.376	1.517739
372.737	1.518910
373.098	1.520753
373.458	1.521763
373.819	1.523410
374.180	1.524116
374.541	1.525374
374.902	1.526408
375.263	1.526589
375.623	1.528106
375.984	1.529994
376.345	1.530571
376.705	1.532415
377.066	1.533809
377.426	1.534713
377.787	1.535134
378.147	1.536367
378.508	1.536482
378.868	1.537334
379.228	1.538276
379.589	1.538486
379.949	1.538701
380.309	1.539899
380.670	1.540869
381.030	1.541654
381.390	1.542858
381.750	1.543667
382.110	1.544147
382.470	1.546009
382.830	1.547509
383.190	1.549065
383.550	1.549355
383.910	1.550718
384.270	1.551591
384.630	1.553097
384.990	1.553871
385.350	1.555903
385.709	1.555928
386.069	1.557686
386.429	1.558629
386.788	1.560235
387.148	1.561320
387.508	1.562954
387.867	1.563091
388.227	1.563598
388.586	1.563980
388.946	1.564129
389.305	1.565065
389.665	1.566331
390.024	1.567285
390.383	1.568402
390.743	1.569403
391.102	1.570001
391.461	1.570808
391.820	1.572017
392.179	1.571835
392.539	1.573110
392.898	1.574269
393.257	1.576091
393.616	1.577730
393.975	1.578175
394.334	1.579234
394.693	1.580485
395.051	1.581170
395.410	1.582177
395.769	1.583535
396.128	1.585751
396.487	1.587011
396.845	1.587650
397.204	1.587476
397.563	1.587331
397.921	1.587359
398.280	1.586833
398.638	1.587220
398.997	1.587784
399.355	1.587320
399.714	1.587444
400.072	1.586883
400.431	1.586083
400.789	1.585291
401.147	1.584214
401.506	1.584138
401.864	1.583245
402.222	1.582584
402.580	1.581180
402.938	1.580995
403.297	1.580300
403.655	1.579289
404.013	1.578592
404.371	1.577997
404.729	1.577559
405.087	1.577089
405.444	1.577145
405.802	1.576924
406.160	1.577149
406.518	1.576239
406.876	1.575506
407.233	1.575245
407.591	1.575529
407.949	1.575397
408.306	1.575288
408.664	1.575421
409.022	1.576418
409.379	1.575828
409.737	1.574633
410.094	1.574007
410.451	1.573941
410.809	1.573359
411.166	1.572407
411.523	1.572722
411.881	1.572526
412.238	1.571791
412.595	1.570812
412.952	1.569903
413.310	1.569183
413.667	1.568385
414.024	1.568283
414.381	1.567701
414.738	1.566874
415.095	1.565066
415.452	1.563972
415.809	1.563348
416.165	1.562079
416.522	1.559699
416.879	1.559035
417.236	1.558588
417.593	1.558402
417.949	1.556506
418.306	1.555260
418.663	1.555927
419.019	1.554442
419.376	1.553902
419.732	1.553123
420.089	1.552653
420.445	1.552186
420.802	1.551662
421.158	1.550229
421.514	1.549156
421.871	1.548567
422.227	1.547578
422.583	1.547108
422.939	1.546344
423.295	1.545104
423.652	1.543986
424.008	1.543200
424.364	1.541837
424.720	1.540916
425.076	1.539536
425.432	1.538793
425.788	1.538059
426.143	1.535464
426.499	1.534524
426.855	1.533059
427.211	1.532393
427.567	1.531025
427.922	1.529513
428.278	1.526937
428.634	1.525907
428.989	1.524267
429.345	1.522380
429.700	1.520843
430.056	1.519712
430.411	1.518298
430.767	1.516478
431.122	1.514906
431.478	1.513335
431.833	1.511641
432.188	1.508969
432.543	1.507534
432.899	1.505152
433.254	1.502920
433.609	1.500996
433.964	1.498669
434.319	1.495739
434.674	1.493279
435.029	1.491204
435.384	1.488629
435.739	1.487390
436.094	1.485081
436.449	1.483237
436.804	1.481421
437.158	1.479195
437.513	1.476764
437.868	1.474481
438.223	1.472774
438.577	1.469521
438.932	1.467373
439.287	1.464951
439.641	1.462826
439.996	1.460132
440.350	1.457837
440.704	1.455403
441.059	1.452679
441.413	1.449284
441.768	1.446428
442.122	1.443818
442.476	1.440800
442.830	1.437898
443.185	1.435397
443.539	1.432471
443.893	1.429084
444.247	1.425808
444.601	1.423420
444.955	1.419831
445.309	1.416296
445.663	1.412563
446.017	1.409961
446.371	1.406060
446.724	1.402413
447.078	1.399060
447.432	1.395651
447.786	1.391730
448.139	1.387626
448.493	1.383936
448.847	1.380475
449.200	1.377280
449.554	1.373621
449.907	1.369915
450.261	1.366055
450.614	1.361823
450.968	1.357934
451.321	1.354116
451.674	1.350233
452.027	1.345494
452.381	1.341874
452.734	1.337958
453.087	1.334246
453.440	1.329829
453.793	1.325976
454.146	1.321915
454.499	1.317865
454.852	1.313242
455.205	1.309372
455.558	1.305773
455.911	1.301720
456.264	1.297930
456.617	1.293885
456.970	1.289847
457.322	1.286257
457.675	1.282805
458.028	1.279304
458.380	1.276027
458.733	1.272520
459.086	1.269267
459.438	1.266324
459.791	1.262453
460.143	1.258918
460.496	1.255172
460.848	1.251499
461.200	1.247821
461.553	1.244164
461.905	1.240906
462.257	1.237707
462.609	1.234237
462.961	1.230759
463.314	1.227683
463.666	1.224410
464.018	1.221119
464.370	1.218150
464.722	1.214836
465.074	1.211349
465.426	1.208217
465.777	1.205045
466.129	1.201983
466.481	1.198853
466.833	1.195747
467.184	1.193026
467.536	1.189744
467.888	1.186733
468.239	1.183698
468.591	1.180136
468.943	1.176517
469.294	1.172324
469.646	1.168673
469.997	1.164781
470.348	1.161156
470.700	1.157673
471.051	1.154294
471.402	1.151176
471.754	1.147939
472.105	1.144868
472.456	1.142075
472.807	1.139006
473.158	1.136122
473.509	1.133633
473.860	1.130757
474.211	1.128278
474.562	1.125649
474.913	1.123130
475.264	1.120372
475.615	1.117821
475.966	1.115475
476.316	1.112903
476.667	1.110365
477.018	1.107752
477.368	1.105358
477.719	1.102653
478.070	1.099905
478.420	1.097447
478.771	1.094687
479.121	1.092049
479.472	1.089395
479.822	1.086911
480.172	1.084495
480.523	1.081887
480.873	1.079042
481.223	1.075461
481.573	1.071594
481.924	1.067869
482.274	1.064514
482.624	1.061466
482.974	1.059045
483.324	1.057163
483.674	1.055850
484.024	1.054697
484.374	1.053550
484.724	1.052134
485.073	1.050637
485.423	1.049172
485.773	1.047558
486.123	1.046032
486.472	1.044346
486.822	1.042712
487.172	1.041101
487.521	1.039460
487.871	1.037759
488.220	1.035980
488.570	1.034429
488.919	1.032585
489.268	1.030452
489.618	1.027948
489.967	1.025037
490.316	1.021470
490.666	1.017540
491.015	1.013522
491.364	1.009652
491.713	1.005862
492.062	1.002758
492.411	0.999897
492.760	0.997122
493.109	0.994344
493.458	0.991700
493.807	0.989196
494.156	0.986664
494.505	0.983973
494.853	0.981295
495.202	0.978703
495.551	0.976057
495.900	0.973418
496.248	0.970821
496.597	0.968298
496.945	0.965886
497.294	0.963449
497.642	0.961064
497.991	0.958476
498.339	0.955782
498.688	0.953212
499.036	0.950930
499.384	0.948463
499.732	0.946084
500.081	0.943709
500.429	0.941286
500.777	0.938976
501.125	0.936744
501.473	0.934467
501.821	0.932189
502.169	0.929949
502.517	0.927669
502.865	0.925505
503.213	0.923282
503.561	0.921038
503.908	0.918825
504.256	0.916448
504.604	0.914273
504.952	0.911983
505.299	0.909760
505.647	0.907591
505.994	0.905334
506.342	0.903124
506.689	0.900950
507.037	0.898762
507.384	0.896460
507.732	0.894335
508.079	0.892111
508.426	0.889901
508.774	0.887782
509.121	0.885742
509.468	0.883798
509.815	0.881922
510.162	0.879780
510.509	0.877790
510.856	0.875862
511.203	0.874039
511.550	0.872259
511.897	0.870318
512.244	0.868471
512.591	0.866605
512.938	0.864767
513.284	0.862973
513.631	0.861056
513.978	0.859164
514.324	0.857359
514.671	0.855502
515.018	0.853621
515.364	0.851744
515.711	0.849941
516.057	0.848070
516.403	0.846202
516.750	0.844335
517.096	0.842468
517.443	0.840840
517.789	0.839144
518.135	0.837419
518.481	0.835528
518.827	0.833790
519.173	0.832041
519.519	0.830325
519.865	0.828563
520.211	0.826862
520.557	0.825088
520.903	0.823277
521.249	0.821486
521.595	0.819680
521.941	0.817977
522.287	0.816087
522.632	0.814140
522.978	0.812250
523.324	0.810456
523.669	0.808741
524.015	0.806885
524.360	0.804943
524.706	0.803019
525.051	0.801161
525.397	0.799166
525.742	0.797395
526.087	0.795567
526.433	0.793881
526.778	0.792265
527.123	0.790625
527.468	0.788829
527.813	0.787255
528.158	0.785562
528.504	0.783778
528.849	0.781814
529.193	0.779924
529.538	0.778098
529.883	0.776190
530.228	0.774090
530.573	0.772211
530.918	0.770168
531.263	0.768293
531.607	0.766432
531.952	0.764559
532.296	0.762743
532.641	0.761109
532.986	0.759204
533.330	0.757258
533.675	0.755381
534.019	0.753287
534.363	0.751233
534.708	0.749232
535.052	0.747064
535.396	0.744980
535.741	0.743085
536.085	0.741136
536.429	0.739151
536.773	0.737102
537.117	0.735011
537.461	0.732885
537.805	0.730466
538.149	0.728109
538.493	0.725574
538.837	0.723258
539.181	0.720835
539.524	0.718327
539.868	0.715717
540.212	0.713256
540.556	0.710758
540.899	0.708214
541.243	0.705766
541.586	0.703273
541.930	0.700802
542.273	0.698406
542.617	0.695966
542.960	0.693224
543.304	0.690455
543.647	0.687528
543.990	0.684668
544.333	0.681737
544.677	0.678947
545.020	0.676198
545.363	0.673387
545.706	0.670757
546.049	0.668013
546.392	0.665349
546.735	0.662613
547.078	0.659770
547.421	0.656829
547.764	0.653776
548.106	0.650597
548.449	0.647326
548.792	0.644021
549.135	0.640713
549.477	0.637409
549.820	0.634191
550.162	0.631074
550.505	0.627903
550.847	0.624656
551.190	0.621265
551.532	0.617847
551.875	0.614211
552.217	0.610463
552.559	0.606788
552.901	0.603131
553.244	0.599441
553.586	0.595884
553.928	0.592494
554.270	0.589198
554.612	0.585924
554.954	0.582713
555.296	0.579359
555.638	0.575885
555.980	0.572251
556.322	0.568402
556.663	0.564317
557.005	0.560202
557.347	0.556168
557.689	0.552214
558.030	0.548458
558.372	0.544643
558.713	0.540930
559.055	0.537229
559.396	0.533510
559.738	0.529670
560.079	0.525716
560.421	0.521920
560.762	0.518151
561.103	0.514278
561.444	0.510527
561.786	0.506862
562.127	0.503252
562.468	0.499640
562.809	0.495939
563.150	0.492098
563.491	0.488159
563.832	0.484113
564.173	0.479876
564.514	0.475553
564.855	0.471030
565.195	0.466275
565.536	0.461615
565.877	0.456989
566.218	0.452474
566.558	0.448129
566.899	0.444002
567.239	0.440101
567.580	0.436465
567.920	0.433155
568.261	0.430160
568.601	0.427338
568.941	0.424651
569.282	0.422049
569.622	0.419461
569.962	0.416904
570.302	0.414320
570.643	0.411822
570.983	0.409502
571.323	0.407342
571.663	0.405223
572.003	0.403224
572.343	0.401248
572.683	0.399149
573.022	0.396850
573.362	0.394373
573.702	0.391835
574.042	0.389346
574.381	0.386948
574.721	0.384652
575.061	0.382481
575.400	0.380482
575.740	0.378530
576.079	0.376592
576.419	0.374520
576.758	0.372266
577.097	0.369850
577.437	0.367343
577.776	0.364786
578.115	0.362265
578.454	0.359888
578.794	0.357850
579.133	0.356117
579.472	0.354627
579.811	0.353268
580.150	0.351946
580.489	0.350569
580.828	0.348997
581.167	0.347274
581.505	0.345474
581.844	0.343657
582.183	0.341814
582.522	0.340009
582.860	0.338274
583.199	0.336651
583.538	0.335143
583.876	0.333755
584.215	0.332432
584.553	0.331191
584.891	0.330017
585.230	0.328809
585.568	0.327529
585.906	0.326071
586.245	0.324463
586.583	0.322787
586.921	0.321177
587.259	0.319732
587.597	0.318415
587.935	0.317187
588.273	0.315905
588.611	0.314420
588.949	0.312768
589.287	0.311000
589.625	0.309174
589.963	0.307405
590.300	0.305708
590.638	0.304195
590.976	0.302771
591.313	0.301387
591.651	0.299968
591.989	0.298523
592.326	0.297139
592.664	0.295864
593.001	0.294643
593.338	0.293514
593.676	0.292463
594.013	0.291397
594.350	0.290323
594.687	0.289262
595.025	0.288288
595.362	0.287338
595.699	0.286442
596.036	0.285616
596.373	0.284837
596.710	0.283999
597.047	0.283141
597.384	0.282224
597.720	0.281259
598.057	0.280269
598.394	0.279284
598.731	0.278248
599.067	0.277195
599.404	0.276106
599.741	0.274992
600.077	0.273938
600.414	0.272990
600.750	0.272165
601.087	0.271503
601.423	0.270851
601.759	0.270237
602.096	0.269576
602.432	0.268979
602.768	0.268366
603.104	0.267717
603.440	0.267039
603.776	0.266433
604.112	0.265788
604.448	0.265164
604.784	0.264539
605.120	0.263933
605.456	0.263312
605.792	0.262739
606.128	0.262183
606.463	0.261656
606.799	0.261088
607.135	0.260502
607.470	0.259915
607.806	0.259283
608.142	0.258606
608.477	0.258010
608.812	0.257446
609.148	0.256900
609.483	0.256364
609.819	0.255827
610.154	0.255226
610.489	0.254615
610.824	0.253965
611.159	0.253340
611.494	0.252730
611.830	0.252204
612.165	0.251758
612.500	0.251397
612.834	0.251082
613.169	0.250794
613.504	0.250459
613.839	0.250127
614.174	0.249800
614.509	0.249413
614.843	0.249032
615.178	0.248679
615.512	0.248288
615.847	0.247903
616.182	0.247583
616.516	0.247269
616.850	0.247017
617.185	0.246817
617.519	0.246599
617.853	0.246423
618.188	0.246122
618.522	0.245740
618.856	0.245224
619.190	0.244596
619.524	0.243923
619.858	0.243297
620.192	0.242678
620.526	0.242189
620.860	0.241847
621.194	0.241470
621.528	0.241149
621.862	0.240847
622.195	0.240604
622.529	0.240270
622.863	0.239926
623.196	0.239590
623.530	0.239279
623.864	0.238917
624.197	0.238600
624.530	0.238256
624.864	0.237911
625.197	0.237706
625.531	0.237536
625.864	0.237368
626.197	0.237253
626.530	0.237188
626.863	0.237047
627.196	0.236874
627.529	0.236659
627.862	0.236374
628.195	0.236120
628.528	0.235753
628.861	0.235337
629.194	0.234954
629.527	0.234631
629.860	0.234332
630.192	0.233991
630.525	0.233597
630.858	0.233267
631.190	0.232910
631.523	0.232513
631.855	0.231988
632.188	0.231395
632.520	0.230902
632.852	0.230526
633.185	0.230156
633.517	0.229746
633.849	0.229377
634.182	0.229115
634.514	0.228881
634.846	0.228653
635.178	0.228300
635.510	0.228069
635.842	0.227850
636.174	0.227545
636.506	0.227393
636.837	0.227164
637.169	0.227013
637.501	0.226818
637.833	0.226781
638.164	0.226660
638.496	0.226591
638.828	0.226465
639.159	0.226420
639.491	0.226327
639.822	0.226095
640.154	0.225792
640.485	0.225436
640.816	0.225053
641.147	0.224692
641.479	0.224205
641.810	0.223749
642.141	0.223455
642.472	0.223099
642.803	0.222762
643.134	0.222423
643.465	0.222017
643.796	0.221650
644.127	0.221153
644.458	0.220631
644.789	0.220034
645.119	0.219607
645.450	0.219362
645.781	0.219354
646.111	0.219425
646.442	0.219593
646.773	0.219780
647.103	0.220021
647.433	0.220222
647.764	0.220281
648.094	0.220230
648.425	0.220248
648.755	0.220268
649.085	0.220198
649.415	0.220269
649.745	0.220485
650.075	0.220707
650.405	0.220821
650.735	0.219021
651.065	0.206762
651.395	0.192903
651.725	0.175091
652.055	0.135320
652.385	0.100102
652.715	0.078195
653.044	0.063247
653.374	0.052414
653.704	0.051321
654.033	0.067090
654.363	0.077091
654.692	0.083387
655.022	0.087368
655.351	0.089922
655.680	0.091500
656.010	0.092399
656.339	0.092836
656.668	0.092995
656.997	0.092998
657.326	0.092909
657.655	0.092771
657.984	0.091907
658.313	0.087838
658.642	0.082474
658.971	0.087783
659.300	0.102668
659.629	0.122805
659.958	0.151576
660.286	0.196215
660.615	0.247917
660.944	0.250655
661.272	0.249652
661.601	0.245645
661.929	0.239919
662.258	0.233741
662.586	0.227968
662.915	0.223209
663.243	0.219747
663.571	0.217376
663.899	0.215913
664.228	0.214951
664.556	0.214260
664.884	0.213730
665.212	0.213370
665.540	0.212950
665.868	0.212765
666.196	0.212670
666.524	0.212513
666.852	0.212419
667.179	0.212201
667.507	0.212074
667.835	0.211927
668.162	0.211675
668.490	0.211451
668.818	0.211245
669.145	0.211185
669.473	0.211193
669.800	0.211359
670.127	0.211671
670.455	0.211982
670.782	0.212269
671.109	0.212462
671.436	0.212624
671.764	0.212825
672.091	0.212917
672.418	0.213053
672.745	0.213166
673.072	0.213156
673.399	0.213126
673.726	0.212996
674.053	0.212951
674.379	0.212879
674.706	0.212824
675.033	0.212752
675.359	0.212863
675.686	0.212872
676.013	0.212733
676.339	0.212519
676.666	0.212234
676.992	0.211864
677.318	0.211604
677.645	0.211356
677.971	0.211222
678.297	0.211234
678.624	0.211200
678.950	0.211210
679.276	0.211223
679.602	0.211197
679.928	0.211128
680.254	0.211002
680.580	0.210903
680.906	0.210687
681.232	0.210516
681.558	0.210497
681.883	0.210574
682.209	0.210648
682.535	0.210802
682.860	0.210958
683.186	0.211242
683.511	0.211359
683.837	0.211497
684.162	0.211563
684.488	0.211658
684.813	0.211653
685.138	0.211612
685.464	0.211498
685.789	0.211375
686.114	0.211231
686.439	0.211035
686.764	0.211007
687.089	0.210964
687.414	0.211074
687.739	0.211276
688.064	0.211448
688.389	0.211606
688.714	0.211745
689.039	0.211710
689.363	0.211711
689.688	0.211688
690.013	0.211506
690.337	0.211496
690.662	0.211463
690.986	0.211428
691.311	0.211278
691.635	0.211243
691.959	0.211155
692.284	0.210996
692.608	0.210795
692.932	0.210652
693.256	0.210607
693.580	0.210554
693.904	0.210494
694.228	0.210463
694.552	0.210536
694.876	0.210725
695.200	0.210861
695.524	0.210937
695.848	0.211024
696.172	0.210979
696.495	0.210925
696.819	0.210913
697.143	0.210686
697.466	0.210478
697.790	0.210157
698.113	0.209876
698.437	0.209519
698.760	0.209223
699.083	0.209108
699.407	0.209068
699.730	0.209090
700.053	0.209233
700.376	0.209282
700.699	0.209387
701.022	0.209360
701.345	0.209205
701.668	0.208780
701.991	0.208225
702.314	0.207480
702.637	0.206663
702.960	0.205782
703.283	0.204931
703.605	0.204086
703.928	0.203523
704.251	0.203147
704.573	0.203066
704.896	0.203120
705.218	0.203200
705.540	0.203275
705.863	0.203353
706.185	0.203254
706.507	0.203039
706.830	0.202639
707.152	0.202198
707.474	0.201805
707.796	0.201390
708.118	0.200978
708.440	0.200750
708.762	0.200581
709.084	0.200552
709.406	0.200526
709.728	0.200573
710.049	0.200651
710.371	0.200704
710.693	0.200790
711.014	0.200511
711.336	0.200310
711.658	0.200101
711.979	0.199976
712.301	0.199861
712.622	0.199718
712.943	0.199612
713.265	0.199620
713.586	0.199669
713.907	0.199754
714.228	0.199781
714.549	0.199780
714.870	0.199752
715.191	0.199724
715.512	0.199725
715.833	0.199718
716.154	0.199805
716.475	0.199859
716.796	0.199825
717.117	0.199813
717.437	0.199585
717.758	0.199646
718.078	0.199423
718.399	0.199123
718.719	0.198773
719.040	0.198365
719.360	0.198058
719.681	0.197832
720.001	0.197521
720.321	0.197240
720.642	0.196924
720.962	0.196615
721.282	0.196443
721.602	0.196240
721.922	0.196019
722.242	0.195722
722.562	0.195464
722.882	0.195262
723.202	0.195196
723.521	0.195146
723.841	0.195120
724.161	0.195114
724.481	0.195158
724.800	0.195168
725.120	0.195062
725.439	0.194985
725.759	0.194777
726.078	0.194643
726.398	0.194466
726.717	0.194319
727.036	0.194219
727.355	0.194337
727.675	0.194563
727.994	0.194749
728.313	0.195009
728.632	0.195256
728.951	0.195532
729.270	0.195710
729.589	0.195654
729.908	0.195439
730.226	0.195189
730.545	0.194951
730.864	0.194792
731.182	0.194539
731.501	0.194392
731.820	0.194401
732.138	0.194372
732.457	0.194410
732.775	0.194381
733.093	0.194468
733.412	0.194521
733.730	0.194616
734.048	0.194577
734.367	0.194471
734.685	0.194348
735.003	0.194081
735.321	0.193855
735.639	0.193562
735.957	0.193328
736.275	0.193103
736.593	0.193075
736.910	0.193170
737.228	0.193331
737.546	0.193437
737.863	0.193566
738.181	0.193536
738.499	0.193462
738.816	0.193337
739.134	0.193158
739.451	0.192990
739.768	0.192830
740.086	0.192615
740.403	0.192364
740.720	0.192153
741.038	0.191828
741.355	0.191463
741.672	0.191219
741.989	0.190890
742.306	0.190629
742.623	0.190351
742.940	0.190099
743.257	0.189693
743.573	0.189108
743.890	0.188413
744.207	0.187732
744.523	0.187197
744.840	0.186770
745.157	0.186218
745.473	0.185756
745.790	0.185420
746.106	0.185055
746.422	0.184614
746.739	0.184346
747.055	0.184010
747.371	0.183760
747.687	0.183760
748.004	0.183850
748.320	0.183991
748.636	0.184022
748.952	0.184002
749.268	0.183999
749.584	0.184092
749.899	0.184154
750.215	0.184216
750.531	0.184172
750.847	0.184257
751.162	0.184221
751.478	0.184186
751.793	0.184217
752.109	0.184134
752.424	0.184017
752.740	0.183981
753.055	0.183960
753.370	0.183877
753.686	0.183946
754.001	0.184092
754.316	0.184217
754.631	0.184407
754.946	0.184486
755.261	0.184639
755.576	0.184809
755.891	0.184874
756.206	0.184858
756.521	0.184785
756.836	0.184742
757.150	0.184762
757.465	0.184796
757.780	0.184959
758.094	0.185133
758.409	0.185366
758.723	0.185624
759.038	0.185822
759.352	0.185953
759.667	0.186037
759.981	0.186071
760.295	0.185895
760.609	0.185701
760.923	0.185508
761.238	0.185253
761.552	0.185005
761.866	0.184777
762.180	0.184707
762.493	0.184779
762.807	0.184898
763.121	0.185014
763.435	0.185171
763.749	0.185191
764.062	0.185074
764.376	0.184776
764.689	0.184398
765.003	0.183872
765.316	0.183459
765.630	0.183265
765.943	0.183062
766.257	0.182927
766.570	0.182837
766.883	0.182825
767.196	0.182781
767.509	0.182615
767.822	0.182452
768.135	0.182320
768.448	0.182171
768.761	0.181853
769.074	0.181556
769.387	0.181223
769.700	0.180934
770.013	0.180604
770.325	0.180388
770.638	0.180313
770.950	0.180214
771.263	0.180227
771.575	0.180211
771.888	0.180166
772.200	0.179984
772.513	0.179755
772.825	0.179489
773.137	0.179233
773.449	0.179047
773.761	0.178661
774.074	0.178370
774.386	0.178021
774.698	0.177740
775.010	0.177335
775.321	0.176871
775.633	0.176340
775.945	0.175994
776.257	0.175711
776.568	0.175423
776.880	0.175337
777.192	0.175113
777.503	0.175021
777.815	0.174928
778.126	0.174921
778.438	0.174919
778.749	0.175145
779.060	0.175366
779.372	0.175591
779.683	0.175818
779.994	0.175973
780.305	0.176254
780.616	0.176509
780.927	0.176714
781.238	0.176824
781.549	0.177027
781.860	0.177262
782.171	0.177375
782.481	0.177465
782.792	0.177485
783.103	0.177608
783.413	0.177527
783.724	0.177512
784.034	0.177414
784.345	0.177230
784.655	0.177098
784.966	0.176938
785.276	0.176719
785.586	0.176559
785.896	0.176381
786.207	0.176230
786.517	0.176131
786.827	0.176117
787.137	0.175989
787.447	0.175831
787.757	0.175844
788.066	0.175752
788.376	0.175748
788.686	0.175792
788.996	0.175758
789.305	0.175701
789.615	0.175575
789.925	0.175503
790.234	0.175417
790.544	0.175372
790.853	0.175296
791.162	0.175298
791.472	0.175427
791.781	0.175527
792.090	0.175627
792.399	0.175766
792.708	0.175846
793.017	0.175849
793.326	0.175674
793.635	0.175536
793.944	0.175340
794.253	0.174978
794.562	0.174633
794.871	0.174324
795.179	0.174146
795.488	0.173990
795.797	0.173969
796.105	0.173887
796.414	0.173916
796.722	0.173905
797.031	0.173880
797.339	0.173884
797.647	0.173748
797.956	0.173445
798.264	0.172935
798.572	0.172494
798.880	0.171945
799.188	0.171425
799.496	0.171069
799.804	0.170651
800.112	0.170292
800.420	0.170142
800.728	0.169948
801.035	0.169892
801.343	0.169598
801.651	0.169110
801.958	0.168771
802.266	0.168394
802.573	0.168384
802.881	0.168383
803.188	0.168245
803.496	0.168305
803.803	0.168501
804.110	0.168721
804.417	0.168737
804.724	0.168690
805.032	0.168660
805.339	0.168576
805.646	0.168546
805.953	0.168292
806.259	0.168365
806.566	0.168330
806.873	0.168428
807.180	0.168536
807.486	0.168680
807.793	0.168858
808.100	0.169027
808.406	0.169066
808.713	0.169165
809.019	0.168671
809.326	0.168223
809.632	0.167858
809.938	0.167196
810.244	0.166623
810.551	0.166003
810.857	0.165467
811.163	0.165135
811.469	0.164732
811.775	0.164509
812.081	0.164305
812.387	0.164380
812.692	0.164166
812.998	0.164287
813.304	0.164055
813.610	0.163838
813.915	0.163551
814.221	0.163382
814.526	0.163286
814.832	0.163300
815.137	0.163222
815.443	0.163382
815.748	0.163384
816.053	0.163381
816.358	0.163337
816.664	0.163286
816.969	0.163270
817.274	0.163354
817.579	0.163390
817.884	0.163350
818.189	0.163128
818.493	0.163028
818.798	0.162879
819.103	0.162681
819.408	0.162379
819.712	0.162276
820.017	0.162281
820.321	0.162005
820.626	0.161844
820.930	0.161563
821.235	0.161033
821.539	0.160556
821.843	0.160454
822.148	0.160305
822.452	0.160236
822.756	0.160418
823.060	0.160142
823.364	0.160207
823.668	0.160233
823.972	0.160270
824.276	0.160117
824.580	0.160127
824.883	0.160038
825.187	0.159852
825.491	0.159819
825.795	0.159685
826.098	0.159612
826.402	0.159512
826.705	0.159858
827.008	0.159643
827.312	0.159621
827.615	0.159670
827.918	0.159630
828.222	0.159373
828.525	0.159169
828.828	0.159200
829.131	0.159072
829.434	0.158931
829.737	0.158388
830.040	0.157884
830.343	0.157054
830.645	0.156583
830.948	0.155965
831.251	0.155594
831.553	0.155396
831.856	0.155019
832.159	0.155086
832.461	0.154611
832.764	0.154421
833.066	0.153650
833.368	0.153524
833.671	0.153058
833.973	0.152860
834.275	0.152596
834.577	0.152543
834.879	0.152372
835.181	0.151897
835.483	0.151443
835.785	0.150984
836.087	0.150830
836.389	0.150414
836.690	0.149867
836.992	0.149021
837.294	0.148285
837.595	0.147062
837.897	0.145964
838.198	0.144961
838.500	0.143540
838.801	0.142673
839.103	0.141156
839.404	0.140333
839.705	0.139646
840.006	0.139137
840.307	0.138766
840.608	0.138273
840.910	0.137626
841.210	0.137531
841.511	0.137226
841.812	0.136895
842.113	0.137122
842.414	0.136307
842.715	0.135646
843.015	0.135294
843.316	0.135437
843.616	0.134919
843.917	0.135050
844.217	0.134824
844.518	0.134395
844.818	0.134041
845.118	0.133495
845.419	0.133944
845.719	0.134407
846.019	0.133914
846.319	0.133843
846.619	0.133542
846.919	0.133744
847.219	0.133947
847.519	0.133720
847.819	0.133907
848.118	0.133539
848.418	0.132540
848.718	0.132568
849.017	0.131893
849.317	0.131205
849.616	0.131364
849.916	0.131946
850.215	0.132473
850.515	0.132850
850.814	0.133428
851.113	0.134361
851.412	0.135495
851.712	0.135907
852.011	0.136099
852.310	0.136882
852.609	0.137411
852.908	0.137683
853.206	0.138179
853.505	0.138473
853.804	0.138541
854.103	0.138723
854.401	0.139097
854.700	0.139545
854.999	0.139363
855.297	0.139831
855.595	0.140547
855.894	0.140648
856.192	0.140924
856.491	0.140802
856.789	0.140676
857.087	0.140718
857.385	0.140206
857.683	0.139404
857.981	0.138871
858.279	0.138383
858.577	0.137297
858.875	0.136301
859.173	0.135105
859.471	0.134341
859.768	0.133689
860.066	0.132750
860.363	0.131641
860.661	0.130612
860.959	0.130132
861.256	0.130475
861.553	0.130445
861.851	0.129238
862.148	0.128336
862.445	0.127292
862.742	0.126744
863.039	0.126484
863.337	0.125097
863.634	0.124301
863.931	0.123336
864.227	0.122707
864.524	0.122241
864.821	0.122010
865.118	0.121193
865.415	0.121793
865.711	0.120759
866.008	0.120005
866.304	0.120335
866.601	0.120079
866.897	0.119369
867.194	0.118077
867.490	0.117222
867.786	0.116156
868.082	0.116423
868.379	0.116363
868.675	0.116406
868.971	0.115956
869.267	0.115709
869.563	0.116349
869.859	0.115877
870.154	0.116073
870.450	0.116058
870.746	0.115606
871.042	0.115486
871.337	0.115695
871.633	0.115304
871.928	0.115722
872.224	0.115398
872.519	0.114427
872.815	0.114244
873.110	0.114466
873.405	0.115200
873.700	0.115279
873.995	0.115034
874.291	0.114753
874.586	0.115104
874.881	0.115368
875.175	0.115648
875.470	0.115330
875.765	0.115498
876.060	0.115972
876.355	0.116131
876.649	0.116023
876.944	0.116467
877.238	0.116695
877.533	0.117445
877.827	0.117918
878.122	0.118238
878.416	0.118838
878.710	0.119782
879.005	0.120328
879.299	0.120519
879.593	0.119740
879.887	0.119677
880.181	0.119834
880.475	0.120059
880.769	0.119682
881.063	0.119013
881.356	0.118911
881.650	0.118861
881.944	0.118218
882.238	0.117765
882.531	0.101980
882.825	0.112445
883.118	0.112591
883.412	0.121519
883.705	0.107527
883.998	0.102695
884.291	0.114412
884.585	0.107908
884.878	0.107383
>>>>>>>>>> END of Data <<<<<<<<<<
>>>>>>>>>> Raw Data Start <<<<<<<<
190.664	-394
191.040	6
191.415	6
191.791	7
192.166	8
192.542	9
192.917	6
193.293	8
193.668	6
194.044	9
194.419	-9
194.794	10
195.170	11
195.545	11
195.920	12
196.296	12
196.671	12
197.046	13
197.421	14
197.796	14
198.171	15
198.546	15
198.922	15
199.297	16
199.672	16
200.047	16
200.422	16
200.796	16
201.171	16
201.546	16
201.921	16
202.296	16
202.671	17
203.045	17
203.420	17
203.795	17
204.170	17
204.544	17
204.919	17
205.294	16
205.668	16
206.043	16
206.417	16
206.792	16
207.166	16
207.541	15
207.915	15
208.289	15
208.664	15
209.038	15
209.412	15
209.787	15
210.161	14
210.535	15
210.909	15
211.284	14
211.658	15
212.032	14
212.406	14
212.780	14
213.154	14
213.528	14
213.902	14
214.276	15
214.650	14
215.024	14
215.398	15
215.772	15
216.145	15
216.519	15
216.893	15
217.267	15
217.640	15
218.014	16
218.388	16
218.761	15
219.135	16
219.508	16
219.882	16
220.256	16
220.629	16
221.003	16
221.376	16
221.749	16
222.123	16
222.496	16
222.869	16
223.243	16
223.616	16
223.989	17
224.362	17
224.736	16
225.109	17
225.482	17
225.855	16
226.228	16
226.601	16
226.974	16
227.347	16
227.720	16
228.093	16
228.466	16
228.839	16
229.212	16
229.585	15
229.957	15
230.330	15
230.703	16
231.076	16
231.448	16
231.821	16
232.194	16
232.566	16
232.939	16
233.311	16
233.684	16
234.056	16
234.429	16
234.801	16
235.174	17
235.546	17
235.918	17
236.291	17
236.663	17
237.035	17
237.408	17
237.780	17
238.152	17
238.524	17
238.896	17
239.268	17
239.641	17
240.013	17
240.385	17
240.757	17
241.129	18
241.500	18
241.872	17
242.244	18
242.616	18
242.988	17
243.360	18
243.731	18
244.103	18
244.475	18
244.847	18
245.218	18
245.590	18
245.961	18
246.333	18
246.705	18
247.076	17
247.448	18
247.819	17
248.190	18
248.562	18
248.933	18
249.305	18
249.676	18
250.047	18
250.418	18
250.790	18
251.161	17
251.532	17
251.903	17
252.274	17
252.645	17
253.016	17
253.387	17
253.758	18
254.129	18
254.500	18
254.871	18
255.242	18
255.613	18
255.984	18
256.355	17
256.725	17
257.096	17
257.467	17
257.838	17
258.208	17
258.579	17
258.949	18
259.320	18
259.690	18
260.061	18
260.431	18
260.802	18
261.172	18
261.543	18
261.913	18
262.283	18
262.654	19
263.024	19
263.394	18
263.764	18
264.135	19
264.505	18
264.875	19
265.245	18
265.615	18
265.985	18
266.355	18
266.725	18
267.095	18
267.465	18
267.835	18
268.205	17
268.575	17
268.944	17
269.314	17
269.684	17
270.054	16
270.423	16
270.793	16
271.163	16
271.532	17
271.902	16
272.271	16
272.641	16
273.010	17
273.380	17
273.749	17
274.119	17
274.488	17
274.857	17
275.227	17
275.596	18
275.965	18
276.335	18
276.704	18
277.073	18
277.442	18
277.811	19
278.180	19
278.549	18
278.918	19
279.287	19
279.656	19
280.025	19
280.394	19
280.763	19
281.132	19
281.501	19
281.869	18
282.238	18
282.607	18
282.976	18
283.344	18
283.713	18
284.081	18
284.450	18
284.819	18
285.187	18
285.556	18
285.924	18
286.292	18
286.661	18
287.029	18
287.398	18
287.766	18
288.134	18
288.502	18
288.871	18
289.239	18
289.607	18
289.975	18
290.343	18
290.711	18
291.079	18
291.447	18
291.815	18
292.183	19
292.551	19
292.919	19
293.287	19
293.655	19
294.022	18
294.390	18
294.758	18
295.126	18
295.493	18
295.861	18
296.229	18
296.596	18
296.964	18
297.331	18
297.699	18
298.066	18
298.434	18
298.801	18
299.168	18
299.536	18
299.903	18
300.270	18
300.638	18
301.005	18
301.372	18
301.739	18
302.106	18
302.473	19
302.840	18
303.207	18
303.574	18
303.941	18
304.308	18
304.675	19
305.042	19
305.409	19
305.776	19
306.143	19
306.509	20
306.876	20
307.243	20
307.610	20
307.976	20
308.343	20
308.709	20
309.076	20
309.442	20
309.809	20
310.175	20
310.542	20
310.908	21
311.275	21
311.641	21
312.007	21
312.373	21
312.740	21
313.106	21
313.472	21
313.838	21
314.204	21
314.570	21
314.936	21
315.302	21
315.668	22
316.034	21
316.400	21
316.766	22
317.132	22
317.498	22
317.864	23
318.230	23
318.595	23
318.961	23
319.327	23
319.692	24
320.058	25
320.424	25
320.789	26
321.155	26
321.520	27
321.886	27
322.251	28
322.616	29
322.982	30
323.347	31
323.712	31
324.078	33
324.443	34
324.808	35
325.173	36
325.539	36
325.904	37
326.269	38
326.634	39
326.999	40
327.364	41
327.729	42
328.094	43
328.459	44
328.823	45
329.188	46
329.553	47
329.918	48
330.283	49
330.647	50
331.012	51
331.377	52
331.741	53
332.106	54
332.470	55
332.835	56
333.199	57
333.564	58
333.928	60
334.293	61
334.657	63
335.021	64
335.386	65
335.750	67
336.114	68
336.478	69
336.843	70
337.207	72
337.571	73
337.935	74
338.299	76
338.663	78
339.027	79
339.391	80
339.755	82
340.119	84
340.483	85
340.846	86
341.210	88
341.574	89
341.938	91
342.301	92
342.665	93
343.029	94
343.392	96
343.756	97
344.119	98
344.483	99
344.846	100
345.210	101
345.573	103
345.937	104
346.300	105
346.663	106
347.027	107
347.390	108
347.753	109
348.116	110
348.479	111
348.843	113
349.206	114
349.569	115
349.932	116
350.295	117
350.658	118
351.021	118
351.383	119
351.746	120
352.109	121
352.472	121
352.835	122
353.197	123
353.560	124
353.923	125
354.285	125
354.648	126
355.011	127
355.373	127
355.736	128
356.098	128
356.461	129
356.823	129
357.185	129
357.548	130
357.910	130
358.272	131
358.635	132
358.997	133
359.359	133
359.721	134
360.083	134
360.445	134
360.807	135
361.169	136
361.531	136
361.893	136
362.255	137
362.617	137
362.979	137
363.341	138
363.703	139
364.064	140
364.426	140
364.788	141
365.149	141
365.511	142
365.873	142
366.234	142
366.596	142
366.957	142
367.319	143
367.680	143
368.042	143
368.403	144
368.764	143
369.126	143
369.487	144
369.848	144
370.209	144
370.570	144
370.931	143
371.293	143
371.654	143
372.015	142
372.376	142
372.737	142
373.098	142
373.458	142
373.819	142
374.180	142
374.541	142
374.902	142
375.263	143
375.623	143
375.984	143
376.345	144
376.705	144
377.066	144
377.426	144
377.787	144
378.147	144
378.508	145
378.868	145
379.228	145
379.589	146
379.949	146
380.309	146
380.670	146
381.030	147
381.390	147
381.750	147
382.110	147
382.470	146
382.830	146
383.190	146
383.550	146
383.910	146
384.270	146
384.630	146
384.990	147
385.350	146
385.709	147
386.069	147
386.429	147
386.788	147
387.148	147
387.508	147
387.867	147
388.227	147
388.586	148
388.946	149
389.305	149
389.665	150
390.024	151
390.383	151
390.743	151
391.102	152
391.461	152
391.820	152
392.179	152
392.539	152
392.898	152
393.257	152
393.616	152
393.975	153
394.334	153
394.693	154
395.051	155
395.410	156
395.769	156
396.128	156
396.487	156
396.845	156
397.204	156
397.563	156
397.921	156
398.280	156
398.638	156
398.997	156
399.355	156
399.714	156
400.072	157
400.431	157
400.789	158
401.147	159
401.506	159
401.864	159
402.222	159
402.580	160
402.938	159
403.297	159
403.655	159
404.013	159
404.371	159
404.729	159
405.087	159
405.444	159
405.802	159
406.160	159
406.518	159
406.876	160
407.233	160
407.591	160
407.949	160
408.306	160
408.664	160
409.022	159
409.379	159
409.737	160
410.094	160
410.451	160
410.809	161
411.166	161
411.523	161
411.881	162
412.238	162
412.595	163
412.952	163
413.310	163
413.667	163
414.024	163
414.381	164
414.738	164
415.095	165
415.452	165
415.809	166
416.165	166
416.522	167
416.879	168
417.236	168
417.593	169
417.949	171
418.306	173
418.663	174
419.019	176
419.376	178
419.732	179
420.089	181
420.445	182
420.802	184
421.158	185
421.514	186
421.871	187
422.227	188
422.583	189
422.939	190
423.295	191
423.652	192
424.008	192
424.364	193
424.720	193
425.076	194
425.432	194
425.788	194
426.143	195
426.499	195
426.855	196
427.211	197
427.567	198
427.922	199
428.278	200
428.634	200
428.989	200
429.345	201
429.700	202
430.056	203
430.411	204
430.767	206
431.122	207
431.478	208
431.833	209
432.188	210
432.543	211
432.899	212
433.254	213
433.609	213
433.964	213
434.319	213
434.674	214
435.029	214
435.384	215
435.739	216
436.094	217
436.449	219
436.804	220
437.158	223
437.513	225
437.868	228
438.223	230
438.577	234
438.932	237
439.287	240
439.641	243
439.996	247
440.350	250
440.704	253
441.059	257
441.413	261
441.768	264
442.122	268
442.476	271
442.830	275
443.185	278
443.539	281
443.893	285
444.247	288
444.601	290
444.955	292
445.309	294
445.663	296
446.017	297
446.371	298
446.724	300
447.078	300
447.432	301
447.786	302
448.139	303
448.493	304
448.847	304
449.200	304
449.554	304
449.907	305
450.261	305
450.614	306
450.968	306
451.321	307
451.674	307
452.027	308
452.381	309
452.734	310
453.087	311
453.440	313
453.793	315
454.146	317
454.499	319
454.852	323
455.205	327
455.558	330
455.911	334
456.264	338
456.617	342
456.970	345
457.322	349
457.675	352
458.028	355
458.380	357
458.733	360
459.086	362
459.438	365
459.791	368
460.143	372
460.496	377
460.848	382
461.200	387
461.553	393
461.905	398
462.257	403
462.609	407
462.961	411
463.314	415
463.666	418
464.018	422
464.370	424
464.722	428
465.074	432
465.426	435
465.777	439
466.129	441
466.481	444
466.833	446
467.184	447
467.536	448
467.888	448
468.239	448
468.591	448
468.943	448
469.294	450
469.646	452
469.997	454
470.348	457
470.700	462
471.051	467
471.402	473
471.754	480
472.105	487
472.456	494
472.807	503
473.158	512
473.509	522
473.860	533
474.211	544
474.562	556
474.913	568
475.264	581
475.615	593
475.966	606
476.316	618
476.667	631
477.018	643
477.368	656
477.719	670
478.070	683
478.420	695
478.771	707
479.121	719
479.472	731
479.822	744
480.172	757
480.523	772
480.873	793
481.223	828
481.573	880
481.924	945
482.274	1017
482.624	1093
482.974	1168
483.324	1234
483.674	1283
484.024	1317
484.374	1339
484.724	1354
485.073	1365
485.423	1374
485.773	1384
486.123	1392
486.472	1401
486.822	1410
487.172	1417
487.521	1423
487.871	1427
488.220	1424
488.570	1407
488.919	1373
489.268	1327
489.618	1272
489.967	1214
490.316	1155
490.666	1105
491.015	1070
491.364	1051
491.713	1043
492.062	1041
492.411	1044
492.760	1049
493.109	1054
493.458	1060
493.807	1064
494.156	1069
494.505	1073
494.853	1078
495.202	1083
495.551	1091
495.900	1098
496.248	1106
496.597	1113
496.945	1120
497.294	1128
497.642	1135
497.991	1144
498.339	1155
498.688	1166
499.036	1176
499.384	1186
499.732	1194
500.081	1202
500.429	1208
500.777	1215
501.125	1220
501.473	1226
501.821	1233
502.169	1239
502.517	1244
502.865	1248
503.213	1251
503.561	1254
503.908	1256
504.256	1258
504.604	1259
504.952	1259
505.299	1259
505.647	1258
505.994	1256
506.342	1253
506.689	1250
507.037	1248
507.384	1248
507.732	1247
508.079	1247
508.426	1248
508.774	1248
509.121	1247
509.468	1247
509.815	1245
510.162	1245
510.509	1244
510.856	1242
511.203	1240
511.550	1238
511.897	1237
512.244	1235
512.591	1234
512.938	1232
513.284	1231
513.631	1229
513.978	1227
514.324	1224
514.671	1221
515.018	1219
515.364	1216
515.711	1214
516.057	1212
516.403	1210
516.750	1208
517.096	1205
517.443	1200
517.789	1197
518.135	1193
518.481	1191
518.827	1188
519.173	1185
519.519	1182
519.865	1180
520.211	1178
520.557	1176
520.903	1174
521.249	1173
521.595	1173
521.941	1171
522.287	1170
522.632	1169
522.978	1169
523.324	1169
523.669	1169
524.015	1170
524.360	1173
524.706	1178
525.051	1184
525.397	1191
525.742	1198
526.087	1205
526.433	1213
526.778	1219
527.123	1223
527.468	1228
527.813	1232
528.158	1236
528.504	1241
528.849	1248
529.193	1258
529.538	1269
529.883	1282
530.228	1297
530.573	1314
530.918	1331
531.263	1349
531.607	1365
531.952	1379
532.296	1392
532.641	1401
532.986	1409
533.330	1417
533.675	1426
534.019	1437
534.363	1450
534.708	1466
535.052	1485
535.396	1505
535.741	1523
536.085	1540
536.429	1555
536.773	1568
537.117	1579
537.461	1588
537.805	1597
538.149	1606
538.493	1617
538.837	1628
539.181	1641
539.524	1657
539.868	1676
540.212	1696
540.556	1718
540.899	1741
541.243	1761
541.586	1779
541.930	1793
542.273	1804
542.617	1812
542.960	1822
543.304	1834
543.647	1850
543.990	1869
544.333	1891
544.677	1913
545.020	1934
545.363	1952
545.706	1966
546.049	1977
546.392	1984
546.735	1988
547.078	1991
547.421	1994
547.764	1999
548.106	2005
548.449	2013
548.792	2026
549.135	2042
549.477	2061
549.820	2081
550.162	2097
550.505	2111
550.847	2122
551.190	2130
551.532	2137
551.875	2144
552.217	2153
552.559	2164
552.901	2178
553.244	2195
553.586	2213
553.928	2232
554.270	2249
554.612	2263
554.954	2275
555.296	2286
555.638	2297
555.980	2308
556.322	2322
556.663	2341
557.005	2365
557.347	2395
557.689	2427
558.030	2458
558.372	2487
558.713	2513
559.055	2539
559.396	2564
559.738	2591
560.079	2620
560.421	2653
560.762	2689
561.103	2730
561.444	2775
561.786	2821
562.127	2870
562.468	2923
562.809	2980
563.150	3044
563.491	3114
563.832	3190
564.173	3277
564.514	3377
564.855	3497
565.195	3644
565.536	3819
565.877	4022
566.218	4252
566.558	4512
566.899	4796
567.239	5102
567.580	5424
567.920	5754
568.261	6087
568.601	6427
568.941	6780
569.282	7144
569.622	7522
569.962	7916
570.302	8337
570.643	8773
570.983	9211
571.323	9634
571.663	10043
572.003	10430
572.343	10792
572.683	11133
573.022	11483
573.362	11854
573.702	12239
574.042	12625
574.381	12994
574.721	13346
575.061	13682
575.400	13987
575.740	14258
576.079	14499
576.419	14741
576.758	15019
577.097	15348
577.437	15708
577.776	16092
578.115	16493
578.454	16899
578.794	17268
579.133	17552
579.472	17745
579.811	17856
580.150	17892
580.489	17871
580.828	17828
581.167	17792
581.505	17774
581.844	17764
582.183	17754
582.522	17757
582.860	17769
583.199	17779
583.538	17762
583.876	17686
584.215	17535
584.553	17298
584.891	16982
585.230	16595
585.568	16169
585.906	15740
586.245	15358
586.583	15035
586.921	14770
587.259	14530
587.597	14285
587.935	14026
588.273	13760
588.611	13513
588.949	13298
589.287	13120
589.625	12984
589.963	12879
590.300	12796
590.638	12719
590.976	12629
591.313	12522
591.651	12419
591.989	12333
592.326	12264
592.664	12205
593.001	12157
593.338	12130
593.676	12119
594.013	12131
594.350	12182
594.687	12265
595.025	12357
595.362	12440
595.699	12498
596.036	12533
596.373	12539
596.710	12514
597.047	12467
597.384	12411
597.720	12350
598.057	12301
598.394	12267
598.731	12250
599.067	12255
599.404	12282
599.741	12339
600.077	12416
600.414	12500
600.750	12587
601.087	12651
601.423	12680
601.759	12680
602.096	12658
602.432	12619
602.768	12560
603.104	12482
603.440	12385
603.776	12281
604.112	12169
604.448	12057
604.784	11938
605.120	11811
605.456	11689
605.792	11560
606.128	11424
606.463	11285
606.799	11144
607.135	11016
607.470	10890
607.806	10766
608.142	10646
608.477	10529
608.812	10416
609.148	10302
609.483	10181
609.819	10059
610.154	9943
610.489	9836
610.824	9743
611.159	9666
611.494	9587
611.830	9517
612.165	9448
612.500	9369
612.834	9277
613.169	9171
613.504	9056
613.839	8929
614.174	8784
614.509	8639
614.843	8495
615.178	8358
615.512	8223
615.847	8091
616.182	7960
616.516	7827
616.850	7685
617.185	7538
617.519	7388
617.853	7227
618.188	7061
618.522	6910
618.856	6783
619.190	6674
619.524	6579
619.858	6504
620.192	6445
620.526	6392
620.860	6338
621.194	6287
621.528	6235
621.862	6183
622.195	6121
622.529	6054
622.863	5986
623.196	5918
623.530	5849
623.864	5780
624.197	5711
624.530	5643
624.864	5582
625.197	5518
625.531	5445
625.864	5357
626.197	5263
626.530	5160
626.863	5046
627.196	4922
627.529	4798
627.862	4676
628.195	4554
628.528	4436
628.861	4322
629.194	4220
629.527	4123
629.860	4026
630.192	3931
630.525	3843
630.858	3760
631.190	3681
631.523	3605
631.855	3535
632.188	3474
632.520	3417
632.852	3363
633.185	3307
633.517	3254
633.849	3205
634.182	3161
634.514	3118
634.846	3080
635.178	3048
635.510	3018
635.842	2991
636.174	2965
636.506	2938
636.837	2911
637.169	2885
637.501	2858
637.833	2827
638.164	2793
638.496	2755
638.828	2712
639.159	2664
639.491	2611
639.822	2558
640.154	2504
640.485	2452
640.816	2400
641.147	2348
641.479	2298
641.810	2251
642.141	2203
642.472	2158
642.803	2112
643.134	2069
643.465	2032
643.796	2002
644.127	1982
644.458	1972
644.789	1973
645.119	1985
645.450	2004
645.781	2025
646.111	2046
646.442	2063
646.773	2077
647.103	2086
647.433	2095
647.764	2104
648.094	2117
648.425	2134
648.755	2154
649.085	2178
649.415	2202
649.745	2227
650.075	2253
650.405	2282
650.735	2349
651.065	2844
651.395	4383
651.725	6937
652.055	10191
652.385	13854
652.715	17516
653.044	21180
653.374	24849
653.704	28060
654.033	30102
654.363	31471
654.692	32352
655.022	32912
655.351	33273
655.680	33493
656.010	33609
656.339	33658
656.668	33667
656.997	33655
657.326	33627
657.655	33552
657.984	33039
658.313	31475
658.642	28888
658.971	25593
659.300	21886
659.629	18179
659.958	14473
660.286	10767
660.615	7525
660.944	5458
661.272	4067
661.601	3166
661.929	2583
662.258	2195
662.586	1943
662.915	1790
663.243	1702
663.571	1651
663.899	1621
664.228	1601
664.556	1588
664.884	1579
665.212	1572
665.540	1568
665.868	1565
666.196	1564
666.524	1563
666.852	1564
667.179	1571
667.507	1583
667.835	1601
668.162	1625
668.490	1654
668.818	1689
669.145	1725
669.473	1760
669.800	1793
670.127	1821
670.455	1844
670.782	1864
671.109	1881
671.436	1895
671.764	1907
672.091	1917
672.418	1925
672.745	1931
673.072	1939
673.399	1947
673.726	1956
674.053	1963
674.379	1966
674.706	1965
675.033	1963
675.359	1960
675.686	1955
676.013	1952
676.339	1954
676.666	1960
676.992	1976
677.318	1996
677.645	2020
677.971	2042
678.297	2061
678.624	2079
678.950	2097
679.276	2113
679.602	2129
679.928	2145
680.254	2166
680.580	2193
680.906	2228
681.232	2271
681.558	2315
681.883	2359
682.209	2400
682.535	2438
682.860	2471
683.186	2499
683.511	2521
683.837	2534
684.162	2545
684.488	2552
684.813	2561
685.138	2570
685.464	2577
685.789	2584
686.114	2590
686.439	2600
686.764	2609
687.089	2615
687.414	2615
687.739	2606
688.064	2589
688.389	2567
688.714	2542
689.039	2515
689.363	2488
689.688	2457
690.013	2429
690.337	2403
690.662	2381
690.986	2362
691.311	2344
691.635	2324
691.959	2306
692.284	2294
692.608	2291
692.932	2295
693.256	2303
693.580	2312
693.904	2325
694.228	2340
694.552	2353
694.876	2358
695.200	2355
695.524	2344
695.848	2327
696.172	2308
696.495	2287
696.819	2265
697.143	2244
697.466	2222
697.790	2203
698.113	2190
698.437	2185
698.760	2184
699.083	2182
699.407	2176
699.730	2164
700.053	2145
700.376	2120
700.699	2084
701.022	2039
701.345	1991
701.668	1947
701.991	1910
702.314	1886
702.637	1875
702.960	1881
703.283	1902
703.605	1939
703.928	1987
704.251	2041
704.573	2094
704.896	2141
705.218	2179
705.540	2209
705.863	2232
706.185	2251
706.507	2267
706.830	2283
707.152	2300
707.474	2318
707.796	2339
708.118	2361
708.440	2382
708.762	2400
709.084	2415
709.406	2422
709.728	2422
710.049	2416
710.371	2405
710.693	2387
711.014	2368
711.336	2351
711.658	2335
711.979	2321
712.301	2307
712.622	2294
712.943	2278
713.265	2258
713.586	2236
713.907	2216
714.228	2199
714.549	2185
714.870	2176
715.191	2172
715.512	2171
715.833	2168
716.154	2161
716.475	2151
716.796	2136
717.117	2115
717.437	2091
717.758	2063
718.078	2035
718.399	2008
718.719	1984
719.040	1964
719.360	1948
719.681	1937
720.001	1930
720.321	1927
720.642	1925
720.962	1927
721.282	1932
721.602	1938
721.922	1945
722.242	1955
722.562	1968
722.882	1983
723.202	1997
723.521	2009
723.841	2023
724.161	2036
724.481	2049
724.800	2063
725.120	2081
725.439	2103
725.759	2129
726.078	2157
726.398	2192
726.717	2235
727.036	2283
727.355	2333
727.675	2382
727.994	2428
728.313	2472
728.632	2510
728.951	2541
729.270	2567
729.589	2593
729.908	2625
730.226	2661
730.545	2701
730.864	2744
731.182	2791
731.501	2838
731.820	2882
732.138	2920
732.457	2953
732.775	2984
733.093	3008
733.412	3022
733.730	3024
734.048	3016
734.367	3002
734.685	2982
735.003	2961
735.321	2942
735.639	2927
735.957	2915
736.275	2904
736.593	2887
736.910	2862
737.228	2826
737.546	2781
737.863	2728
738.181	2671
738.499	2611
738.816	2552
739.134	2494
739.451	2436
739.768	2377
740.086	2321
740.403	2268
740.720	2220
741.038	2175
741.355	2131
741.672	2088
741.989	2043
742.306	1997
742.623	1949
742.940	1902
743.257	1858
743.573	1821
743.890	1792
744.207	1770
744.523	1754
744.840	1744
745.157	1738
745.473	1738
745.790	1744
746.106	1758
746.422	1779
746.739	1804
747.055	1835
747.371	1871
747.687	1907
748.004	1941
748.320	1971
748.636	1997
748.952	2025
749.268	2052
749.584	2078
749.899	2101
750.215	2126
750.531	2153
750.847	2183
751.162	2215
751.478	2245
751.793	2276
752.109	2309
752.424	2345
752.740	2381
753.055	2423
753.370	2473
753.686	2531
754.001	2593
754.316	2658
754.631	2727
754.946	2801
755.261	2877
755.576	2951
755.891	3023
756.206	3094
756.521	3169
756.836	3245
757.150	3319
757.465	3383
757.780	3438
758.094	3483
758.409	3518
758.723	3539
759.038	3548
759.352	3547
759.667	3535
759.981	3517
760.295	3499
760.609	3485
760.923	3476
761.238	3471
761.552	3468
761.866	3464
762.180	3456
762.493	3436
762.807	3399
763.121	3343
763.435	3272
763.749	3194
764.062	3123
764.376	3064
764.689	3024
765.003	3004
765.316	3002
765.630	3013
765.943	3030
766.257	3051
766.570	3068
766.883	3071
767.196	3063
767.509	3042
767.822	3012
768.135	2974
768.448	2932
768.761	2889
769.074	2852
769.387	2824
769.700	2806
770.013	2796
770.325	2788
770.638	2775
770.950	2752
771.263	2714
771.575	2662
771.888	2595
772.200	2518
772.513	2434
772.825	2347
773.137	2258
773.449	2170
773.761	2086
774.074	2007
774.386	1937
774.698	1879
775.010	1831
775.321	1798
775.633	1776
775.945	1764
776.257	1757
776.568	1755
776.880	1760
777.192	1774
777.503	1793
777.815	1818
778.126	1848
778.438	1886
778.749	1926
779.060	1965
779.372	2001
779.683	2036
779.994	2067
780.305	2092
780.616	2108
780.927	2119
781.238	2122
781.549	2116
781.860	2102
782.171	2082
782.481	2060
782.792	2039
783.103	2017
783.413	1994
783.724	1969
784.034	1945
784.345	1923
784.655	1903
784.966	1883
785.276	1862
785.586	1841
785.896	1820
786.207	1798
786.517	1775
786.827	1752
787.137	1731
787.447	1711
787.757	1691
788.066	1672
788.376	1653
788.686	1635
788.996	1616
789.305	1598
789.615	1583
789.925	1575
790.234	1574
790.544	1578
790.853	1586
791.162	1594
791.472	1601
791.781	1604
792.090	1601
792.399	1591
792.708	1575
793.017	1558
793.326	1542
793.635	1526
793.944	1512
794.253	1501
794.562	1493
794.871	1488
795.179	1484
795.488	1479
795.797	1471
796.105	1458
796.414	1436
796.722	1406
797.031	1368
797.339	1322
797.647	1271
797.956	1217
798.264	1168
798.572	1127
798.880	1096
799.188	1073
799.496	1056
799.804	1044
800.112	1034
800.420	1026
800.728	1018
801.035	1008
801.343	995
801.651	986
801.958	984
802.266	988
802.573	996
802.881	1007
803.188	1021
803.496	1036
803.803	1050
804.110	1064
804.417	1076
804.724	1086
805.032	1096
805.339	1105
805.646	1110
805.953	1114
806.259	1114
806.566	1112
806.873	1107
807.180	1101
807.486	1095
807.793	1088
808.100	1076
808.406	1059
808.713	1034
809.019	1006
809.326	978
809.632	951
809.938	926
810.244	903
810.551	883
810.857	867
811.163	853
811.469	838
811.775	822
812.081	806
812.387	790
812.692	778
812.998	769
813.304	762
813.610	756
813.915	751
814.221	748
814.526	744
814.832	741
815.137	738
815.443	733
815.748	726
816.053	716
816.358	706
816.664	697
816.969	689
817.274	682
817.579	675
817.884	672
818.189	671
818.493	671
818.798	669
819.103	665
819.408	659
819.712	651
820.017	642
820.321	633
820.626	625
820.930	617
821.235	612
821.539	610
821.843	610
822.148	611
822.452	612
822.756	612
823.060	610
823.364	606
823.668	601
823.972	595
824.276	588
824.580	583
824.883	581
825.187	580
825.491	580
825.795	580
826.098	580
826.402	580
826.705	577
827.008	573
827.312	567
827.615	558
827.918	546
828.222	533
828.525	519
828.828	507
829.131	494
829.434	481
829.737	469
830.040	460
830.343	453
830.645	446
830.948	439
831.251	433
831.553	427
831.856	422
832.159	418
832.461	412
832.764	406
833.066	401
833.368	397
833.671	393
833.973	391
834.275	388
834.577	385
834.879	382
835.181	379
835.483	374
835.785	369
836.087	363
836.389	355
836.690	346
836.992	337
837.294	327
837.595	317
837.897	306
838.198	295
838.500	285
838.801	276
839.103	269
839.404	262
839.705	256
840.006	251
840.307	248
840.608	245
840.910	243
841.210	242
841.511	240
841.812	238
842.113	235
842.414	232
842.715	228
843.015	223
843.316	218
843.616	214
843.917	209
844.217	206
844.518	203
844.818	200
845.118	199
845.419	198
845.719	196
846.019	195
846.319	194
846.619	193
846.919	193
847.219	192
847.519	190
847.819	189
848.118	189
848.418	192
848.718	197
849.017	207
849.317	221
849.616	238
849.916	256
850.215	278
850.515	300
850.814	322
851.113	342
851.412	360
851.712	376
852.011	391
852.310	405
852.609	418
852.908	429
853.206	439
853.505	448
853.804	456
854.103	463
854.401	467
854.700	469
854.999	468
855.297	461
855.595	451
855.894	438
856.192	422
856.491	403
856.789	383
857.087	362
857.385	343
857.683	326
857.981	311
858.279	297
858.577	283
858.875	271
859.173	262
859.471	254
859.768	248
860.066	242
860.363	238
860.661	234
860.959	231
861.256	228
861.553	224
861.851	220
862.148	216
862.445	212
862.742	208
863.039	204
863.337	202
863.634	200
863.931	199
864.227	198
864.524	197
864.821	197
865.118	197
865.415	195
865.711	192
866.008	189
866.304	185
866.601	182
866.897	179
867.194	176
867.490	175
867.786	174
868.082	174
868.379	174
868.675	175
868.971	175
869.267	176
869.563	175
869.859	175
870.154	174
870.450	173
870.746	173
871.042	172
871.337	172
871.633	172
871.928	173
872.224	174
872.519	176
872.815	177
873.110	177
873.405	177
873.700	176
873.995	176
874.291	176
874.586	176
874.881	177
875.175	179
875.470	182
875.765	185
876.060	188
876.355	192
876.649	196
876.944	199
877.238	203
877.533	205
877.827	208
878.122	209
878.416	210
878.710	210
879.005	209
879.299	208
879.593	207
879.887	206
880.181	205
880.475	204
880.769	202
881.063	201
881.356	199
881.650	196
881.944	193
882.238	158
882.531	158
882.825	151
883.118	154
883.412	153
883.705	156
883.998	163
884.291	163
884.585	166
884.878	173
>>>>>>>>>> END of Data <<<<<<<<<<