Date	2021年06月15日火曜日 04時14分36秒
Spectrometers	USB2+H05879
ダーク	使用
リファレンス	使用
積分時間[msec]	10
平均回数	280
ｽﾑｰｼﾞﾝｸﾞ	10
Electrical Dark	USE
ピクセル数	2048
計測モード	吸光度
保存開始波長[nm]	190.664
保存終了波長[nm]	884.878
保存ﾋﾟｯﾁ波長[nm]	全波長

>>>>>>>>>> Data Start <<<<<<<<<<<<
190.664	0.000000
191.040	0.000000
191.415	0.000000
191.791	-2.687997
192.166	-0.676090
192.542	-0.823968
192.917	0.000000
193.293	-0.395589
193.668	-0.129868
194.044	-0.911345
194.419	0.000000
194.794	-1.387691
195.170	-1.308667
195.545	-1.229592
195.920	-1.088814
196.296	-0.969017
196.671	-0.811343
197.046	-0.650998
197.421	-0.610452
197.796	-0.609561
198.171	-0.578511
198.546	-0.536096
198.922	-0.483378
199.297	-0.459820
199.672	-0.440253
200.047	-0.410351
200.422	-0.378214
200.796	-0.360747
201.171	-0.339013
201.546	-0.332827
201.921	-0.321005
202.296	-0.309906
202.671	-0.265047
203.045	-0.241892
203.420	-0.229408
203.795	-0.215559
204.170	-0.205248
204.544	-0.196301
204.919	-0.197567
205.294	-0.190665
205.668	-0.175777
206.043	-0.160734
206.417	-0.168425
206.792	-0.159114
207.166	-0.155102
207.541	-0.149909
207.915	-0.157192
208.289	-0.142900
208.664	-0.146957
209.038	-0.152506
209.412	-0.134409
209.787	-0.116713
210.161	-0.102571
210.535	-0.113241
210.909	-0.103517
211.284	-0.096690
211.658	-0.103093
212.032	-0.105573
212.406	-0.117543
212.780	-0.119840
213.154	-0.119476
213.528	-0.120594
213.902	-0.114793
214.276	-0.110271
214.650	-0.110325
215.024	-0.108334
215.398	-0.101427
215.772	-0.099075
216.145	-0.100453
216.519	-0.091818
216.893	-0.092627
217.267	-0.100518
217.640	-0.112146
218.014	-0.105354
218.388	-0.096861
218.761	-0.106115
219.135	-0.093866
219.508	-0.096622
219.882	-0.098451
220.256	-0.092009
220.629	-0.088551
221.003	-0.086558
221.376	-0.084788
221.749	-0.094484
222.123	-0.092551
222.496	-0.093458
222.869	-0.091967
223.243	-0.094779
223.616	-0.088193
223.989	-0.093784
224.362	-0.093755
224.736	-0.096083
225.109	-0.090979
225.482	-0.088753
225.855	-0.091070
226.228	-0.097521
226.601	-0.090473
226.974	-0.090276
227.347	-0.078964
227.720	-0.076264
228.093	-0.072518
228.466	-0.066996
228.839	-0.062867
229.212	-0.069372
229.585	-0.070262
229.957	-0.071113
230.330	-0.068486
230.703	-0.061183
231.076	-0.057160
231.448	-0.059158
231.821	-0.060724
232.194	-0.055782
232.566	-0.051830
232.939	-0.056645
233.311	-0.054813
233.684	-0.059386
234.056	-0.061860
234.429	-0.063771
234.801	-0.067070
235.174	-0.068525
235.546	-0.073946
235.918	-0.077846
236.291	-0.078437
236.663	-0.074351
237.035	-0.070984
237.408	-0.060714
237.780	-0.047764
238.152	-0.058695
238.524	-0.070153
238.896	-0.067582
239.268	-0.071443
239.641	-0.065551
240.013	-0.059305
240.385	-0.056140
240.757	-0.056359
241.129	-0.053102
241.500	-0.051542
241.872	-0.043271
242.244	-0.038999
242.616	-0.039385
242.988	-0.037274
243.360	-0.029526
243.731	-0.019621
244.103	-0.021072
244.475	-0.024385
244.847	-0.017725
245.218	-0.014554
245.590	-0.017506
245.961	-0.007340
246.333	0.000112
246.705	-0.000730
247.076	0.003927
247.448	0.005537
247.819	0.004940
248.190	0.015005
248.562	0.012864
248.933	0.014380
249.305	0.016103
249.676	0.015935
250.047	0.011356
250.418	0.011268
250.790	0.011788
251.161	0.011922
251.532	0.004383
251.903	0.005753
252.274	0.014599
252.645	0.018516
253.016	0.011223
253.387	0.005655
253.758	0.004513
254.129	0.002891
254.500	0.005826
254.871	0.010281
255.242	0.008231
255.613	0.002819
255.984	-0.003694
256.355	-0.001045
256.725	-0.000225
257.096	-0.005023
257.467	-0.005516
257.838	-0.006087
258.208	-0.002519
258.579	-0.000637
258.949	-0.003484
259.320	0.002744
259.690	0.002931
260.061	0.002598
260.431	0.003990
260.802	0.009204
261.172	0.010414
261.543	0.013085
261.913	0.017136
262.283	0.012496
262.654	0.008121
263.024	0.004373
263.394	0.004305
263.764	0.004689
264.135	0.008608
264.505	0.005886
264.875	0.008460
265.245	0.010839
265.615	0.011917
265.985	0.016444
266.355	0.018390
266.725	0.023320
267.095	0.024064
267.465	0.027936
267.835	0.025836
268.205	0.016996
268.575	0.015433
268.944	0.023671
269.314	0.022037
269.684	0.025899
270.054	0.025531
270.423	0.032111
270.793	0.036714
271.163	0.042511
271.532	0.041883
271.902	0.046308
272.271	0.049461
272.641	0.048278
273.010	0.039978
273.380	0.039919
273.749	0.030350
274.119	0.030553
274.488	0.034931
274.857	0.034996
275.227	0.031434
275.596	0.028328
275.965	0.036881
276.335	0.031164
276.704	0.022743
277.073	0.026302
277.442	0.028207
277.811	0.031375
278.180	0.035284
278.549	0.031927
278.918	0.031420
279.287	0.032168
279.656	0.030326
280.025	0.026571
280.394	0.032136
280.763	0.038759
281.132	0.043749
281.501	0.048138
281.869	0.043687
282.238	0.036034
282.607	0.031628
282.976	0.033944
283.344	0.043152
283.713	0.039690
284.081	0.046932
284.450	0.056304
284.819	0.059011
285.187	0.063443
285.556	0.060962
285.924	0.052206
286.292	0.050298
286.661	0.046401
287.029	0.050657
287.398	0.046043
287.766	0.045650
288.134	0.045972
288.502	0.045959
288.871	0.048349
289.239	0.047965
289.607	0.049411
289.975	0.056471
290.343	0.057185
290.711	0.061418
291.079	0.056354
291.447	0.058252
291.815	0.061421
292.183	0.066139
292.551	0.061695
292.919	0.058809
293.287	0.061748
293.655	0.068970
294.022	0.075837
294.390	0.083180
294.758	0.083178
295.126	0.092438
295.493	0.100633
295.861	0.099548
296.229	0.096316
296.596	0.094634
296.964	0.094000
297.331	0.098473
297.699	0.095230
298.066	0.101677
298.434	0.099996
298.801	0.106691
299.168	0.105738
299.536	0.103669
299.903	0.096785
300.270	0.100794
300.638	0.102106
301.005	0.113282
301.372	0.119304
301.739	0.128073
302.106	0.131886
302.473	0.140352
302.840	0.147855
303.207	0.164312
303.574	0.182416
303.941	0.196130
304.308	0.204709
304.675	0.218618
305.042	0.236854
305.409	0.258678
305.776	0.271934
306.143	0.295895
306.509	0.313640
306.876	0.342548
307.243	0.364537
307.610	0.390511
307.976	0.413592
308.343	0.439605
308.709	0.466182
309.076	0.494401
309.442	0.522938
309.809	0.551646
310.175	0.581501
310.542	0.608875
310.908	0.632090
311.275	0.656419
311.641	0.689523
312.007	0.724333
312.373	0.755812
312.740	0.782874
313.106	0.810265
313.472	0.848467
313.838	0.871744
314.204	0.895231
314.570	0.914729
314.936	0.942907
315.302	0.963260
315.668	0.992609
316.034	1.021406
316.400	1.048560
316.766	1.068086
317.132	1.093122
317.498	1.113620
317.864	1.130931
318.230	1.146980
318.595	1.167010
318.961	1.184315
319.327	1.202717
319.692	1.215997
320.058	1.226237
320.424	1.235818
320.789	1.249366
321.155	1.257392
321.520	1.274309
321.886	1.291986
322.251	1.305587
322.616	1.315056
322.982	1.331310
323.347	1.338143
323.712	1.350718
324.078	1.358263
324.443	1.364926
324.808	1.369217
325.173	1.378544
325.539	1.384650
325.904	1.394452
326.269	1.399175
326.634	1.405520
326.999	1.412501
327.364	1.417982
327.729	1.426216
328.094	1.436599
328.459	1.442665
328.823	1.447623
329.188	1.453387
329.553	1.454330
329.918	1.459469
330.283	1.467468
330.647	1.471215
331.012	1.477261
331.377	1.478916
331.741	1.479991
332.106	1.484819
332.470	1.488135
332.835	1.489178
333.199	1.491176
333.564	1.493735
333.928	1.495897
334.293	1.499018
334.657	1.497646
335.021	1.500902
335.386	1.502131
335.750	1.500637
336.114	1.500716
336.478	1.502867
336.843	1.501869
337.207	1.503899
337.571	1.505760
337.935	1.504285
338.299	1.502649
338.663	1.500875
339.027	1.501466
339.391	1.503200
339.755	1.503000
340.119	1.502638
340.483	1.502373
340.846	1.504503
341.210	1.505905
341.574	1.505687
341.938	1.504925
342.301	1.507322
342.665	1.506894
343.029	1.507354
343.392	1.508136
343.756	1.508627
344.119	1.509403
344.483	1.509613
344.846	1.509989
345.210	1.509714
345.573	1.510050
345.937	1.511236
346.300	1.511880
346.663	1.511304
347.027	1.511770
347.390	1.512005
347.753	1.512671
348.116	1.512679
348.479	1.513161
348.843	1.512304
349.206	1.511702
349.569	1.511241
349.932	1.510812
350.295	1.511393
350.658	1.512225
351.021	1.514204
351.383	1.515067
351.746	1.514881
352.109	1.516028
352.472	1.515995
352.835	1.516395
353.197	1.517839
353.560	1.518900
353.923	1.519283
354.285	1.520279
354.648	1.519667
355.011	1.519876
355.373	1.519616
355.736	1.521526
356.098	1.522010
356.461	1.522326
356.823	1.523886
357.185	1.524969
357.548	1.525564
357.910	1.525531
358.272	1.525261
358.635	1.523731
358.997	1.523195
359.359	1.523845
359.721	1.524000
360.083	1.524731
360.445	1.525876
360.807	1.525778
361.169	1.525630
361.531	1.526966
361.893	1.527017
362.255	1.528537
362.617	1.530328
362.979	1.532607
363.341	1.532122
363.703	1.532479
364.064	1.533582
364.426	1.534811
364.788	1.535738
365.149	1.536409
365.511	1.537811
365.873	1.538805
366.234	1.539994
366.596	1.541526
366.957	1.542501
367.319	1.542904
367.680	1.544036
368.042	1.543825
368.403	1.544347
368.764	1.546563
369.126	1.546156
369.487	1.547041
369.848	1.547659
370.209	1.548155
370.570	1.548133
370.931	1.550249
371.293	1.550668
371.654	1.551556
372.015	1.553311
372.376	1.555536
372.737	1.557054
373.098	1.557096
373.458	1.558799
373.819	1.560993
374.180	1.563096
374.541	1.564115
374.902	1.565478
375.263	1.566410
375.623	1.567614
375.984	1.570926
376.345	1.571370
376.705	1.573446
377.066	1.575423
377.426	1.576127
377.787	1.576980
378.147	1.578590
378.508	1.578444
378.868	1.579702
379.228	1.580823
379.589	1.580934
379.949	1.581142
380.309	1.582154
380.670	1.583835
381.030	1.584561
381.390	1.584829
381.750	1.584508
382.110	1.585169
382.470	1.586797
382.830	1.588063
383.190	1.589805
383.550	1.589478
383.910	1.590217
384.270	1.591477
384.630	1.592483
384.990	1.593099
385.350	1.594654
385.709	1.595001
386.069	1.596522
386.429	1.596930
386.788	1.598328
387.148	1.599410
387.508	1.600241
387.867	1.600630
388.227	1.601193
388.586	1.601678
388.946	1.602801
389.305	1.604026
389.665	1.605103
390.024	1.605386
390.383	1.606135
390.743	1.606271
391.102	1.607069
391.461	1.607342
391.820	1.608098
392.179	1.607678
392.539	1.608689
392.898	1.609557
393.257	1.609809
393.616	1.611665
393.975	1.612629
394.334	1.612192
394.693	1.613157
395.051	1.613882
395.410	1.614966
395.769	1.615816
396.128	1.616521
396.487	1.616525
396.845	1.616440
397.204	1.616911
397.563	1.617261
397.921	1.617000
398.280	1.616923
398.638	1.616499
398.997	1.617345
399.355	1.616768
399.714	1.617498
400.072	1.617075
400.431	1.615711
400.789	1.616619
401.147	1.615387
401.506	1.614915
401.864	1.615171
402.222	1.613824
402.580	1.613217
402.938	1.613019
403.297	1.612556
403.655	1.611959
404.013	1.611827
404.371	1.612187
404.729	1.611516
405.087	1.610742
405.444	1.611059
405.802	1.611166
406.160	1.610771
406.518	1.609588
406.876	1.608968
407.233	1.608037
407.591	1.608146
407.949	1.608538
408.306	1.608319
408.664	1.608067
409.022	1.608224
409.379	1.607764
409.737	1.607819
410.094	1.606734
410.451	1.605665
410.809	1.605287
411.166	1.604792
411.523	1.605008
411.881	1.604198
412.238	1.603326
412.595	1.602249
412.952	1.601274
413.310	1.599954
413.667	1.599841
414.024	1.600267
414.381	1.599868
414.738	1.599264
415.095	1.598165
415.452	1.596601
415.809	1.594856
416.165	1.594059
416.522	1.592995
416.879	1.591844
417.236	1.590273
417.593	1.589202
417.949	1.587333
418.306	1.586639
418.663	1.587197
419.019	1.585604
419.376	1.584221
419.732	1.582960
420.089	1.583305
420.445	1.582588
420.802	1.582524
421.158	1.580636
421.514	1.578668
421.871	1.577547
422.227	1.576268
422.583	1.575311
422.939	1.573933
423.295	1.572511
423.652	1.571017
424.008	1.569513
424.364	1.567986
424.720	1.567234
425.076	1.566426
425.432	1.565704
425.788	1.564692
426.143	1.561925
426.499	1.560473
426.855	1.559461
427.211	1.558293
427.567	1.556250
427.922	1.554537
428.278	1.551257
428.634	1.550060
428.989	1.548414
429.345	1.546256
429.700	1.544286
430.056	1.542777
430.411	1.541784
430.767	1.540505
431.122	1.538895
431.478	1.537640
431.833	1.535472
432.188	1.533240
432.543	1.531387
432.899	1.529176
433.254	1.526044
433.609	1.523534
433.964	1.521437
434.319	1.518886
434.674	1.516212
435.029	1.513528
435.384	1.510800
435.739	1.508972
436.094	1.506641
436.449	1.504803
436.804	1.503084
437.158	1.501164
437.513	1.498474
437.868	1.496041
438.223	1.493717
438.577	1.490528
438.932	1.487876
439.287	1.486178
439.641	1.483555
439.996	1.480671
440.350	1.478536
440.704	1.476538
441.059	1.473921
441.413	1.470709
441.768	1.467782
442.122	1.465507
442.476	1.462358
442.830	1.459704
443.185	1.457016
443.539	1.453823
443.893	1.450435
444.247	1.447187
444.601	1.444146
444.955	1.440704
445.309	1.437231
445.663	1.433437
446.017	1.430147
446.371	1.426275
446.724	1.422199
447.078	1.418337
447.432	1.414632
447.786	1.410249
448.139	1.405711
448.493	1.402042
448.847	1.397946
449.200	1.394082
449.554	1.389997
449.907	1.386051
450.261	1.381707
450.614	1.377747
450.968	1.373839
451.321	1.369532
451.674	1.365060
452.027	1.360213
452.381	1.356081
452.734	1.351645
453.087	1.347292
453.440	1.342536
453.793	1.338248
454.146	1.333786
454.499	1.329575
454.852	1.324999
455.205	1.321191
455.558	1.316900
455.911	1.312566
456.264	1.308366
456.617	1.304235
456.970	1.300038
457.322	1.296551
457.675	1.292955
458.028	1.289102
458.380	1.285547
458.733	1.282318
459.086	1.279110
459.438	1.275800
459.791	1.272090
460.143	1.268206
460.496	1.264757
460.848	1.261121
461.200	1.256948
461.553	1.253044
461.905	1.249617
462.257	1.245946
462.609	1.242194
462.961	1.238839
463.314	1.235362
463.666	1.231964
464.018	1.228314
464.370	1.225014
464.722	1.221367
465.074	1.217801
465.426	1.214506
465.777	1.211019
466.129	1.207447
466.481	1.203892
466.833	1.200798
467.184	1.197797
467.536	1.194459
467.888	1.190895
468.239	1.187550
468.591	1.184115
468.943	1.180244
469.294	1.176132
469.646	1.171981
469.997	1.167560
470.348	1.163591
470.700	1.159542
471.051	1.155869
471.402	1.152115
471.754	1.148348
472.105	1.144844
472.456	1.141457
472.807	1.138190
473.158	1.135005
473.509	1.132053
473.860	1.129129
474.211	1.126105
474.562	1.123037
474.913	1.120089
475.264	1.117096
475.615	1.114311
475.966	1.111408
476.316	1.108479
476.667	1.105565
477.018	1.102975
477.368	1.100102
477.719	1.097264
478.070	1.094483
478.420	1.091681
478.771	1.088976
479.121	1.086171
479.472	1.083443
479.822	1.080628
480.172	1.077651
480.523	1.074695
480.873	1.071455
481.223	1.067831
481.573	1.064300
481.924	1.060879
482.274	1.057619
482.624	1.054561
482.974	1.051773
483.324	1.049349
483.674	1.047345
484.024	1.045407
484.374	1.043553
484.724	1.041776
485.073	1.039960
485.423	1.038221
485.773	1.036323
486.123	1.034505
486.472	1.032638
486.822	1.030777
487.172	1.028998
487.521	1.027267
487.871	1.025473
488.220	1.023636
488.570	1.021628
488.919	1.019177
489.268	1.016234
489.618	1.013053
489.967	1.009409
490.316	1.005274
490.666	1.001115
491.015	0.997087
491.364	0.993331
491.713	0.989751
492.062	0.986618
492.411	0.983535
492.760	0.980495
493.109	0.977683
493.458	0.974743
493.807	0.971907
494.156	0.969043
494.505	0.966090
494.853	0.963094
495.202	0.960053
495.551	0.957067
495.900	0.954136
496.248	0.951044
496.597	0.948053
496.945	0.945181
497.294	0.942346
497.642	0.939512
497.991	0.936558
498.339	0.933549
498.688	0.930842
499.036	0.928224
499.384	0.925455
499.732	0.922755
500.081	0.920005
500.429	0.917170
500.777	0.914508
501.125	0.911946
501.473	0.909383
501.821	0.906797
502.169	0.904320
502.517	0.901897
502.865	0.899475
503.213	0.897019
503.561	0.894593
503.908	0.892230
504.256	0.889726
504.604	0.887302
504.952	0.884894
505.299	0.882474
505.647	0.880146
505.994	0.877611
506.342	0.875108
506.689	0.872683
507.037	0.870272
507.384	0.867888
507.732	0.865613
508.079	0.863317
508.426	0.860958
508.774	0.858540
509.121	0.856313
509.468	0.854158
509.815	0.851890
510.162	0.849595
510.509	0.847409
510.856	0.845340
511.203	0.843240
511.550	0.841037
511.897	0.838857
512.244	0.836692
512.591	0.834585
512.938	0.832537
513.284	0.830505
513.631	0.828395
513.978	0.826366
514.324	0.824247
514.671	0.822127
515.018	0.820039
515.364	0.817931
515.711	0.815806
516.057	0.813772
516.403	0.811685
516.750	0.809539
517.096	0.807574
517.443	0.805618
517.789	0.803615
518.135	0.801614
518.481	0.799632
518.827	0.797640
519.173	0.795678
519.519	0.793789
519.865	0.791781
520.211	0.789852
520.557	0.787941
520.903	0.785975
521.249	0.783948
521.595	0.782021
521.941	0.780017
522.287	0.777938
522.632	0.775848
522.978	0.773929
523.324	0.771951
523.669	0.769970
524.015	0.767971
524.360	0.765844
524.706	0.763897
525.051	0.761922
525.397	0.759873
525.742	0.757854
526.087	0.756002
526.433	0.754130
526.778	0.752342
527.123	0.750583
527.468	0.748623
527.813	0.746620
528.158	0.744707
528.504	0.742755
528.849	0.740617
529.193	0.738593
529.538	0.736556
529.883	0.734414
530.228	0.732164
530.573	0.730081
530.918	0.727999
531.263	0.725736
531.607	0.723591
531.952	0.721488
532.296	0.719354
532.641	0.717364
532.986	0.715264
533.330	0.713060
533.675	0.710947
534.019	0.708660
534.363	0.706396
534.708	0.704170
535.052	0.702072
535.396	0.699889
535.741	0.697652
536.085	0.695433
536.429	0.693127
536.773	0.690806
537.117	0.688443
537.461	0.685955
537.805	0.683276
538.149	0.680625
538.493	0.678014
538.837	0.675411
539.181	0.672594
539.524	0.669837
539.868	0.667131
540.212	0.664495
540.556	0.661855
540.899	0.659050
541.243	0.656350
541.586	0.653568
541.930	0.650761
542.273	0.647802
542.617	0.644864
542.960	0.641858
543.304	0.638768
543.647	0.635611
543.990	0.632483
544.333	0.629290
544.677	0.626162
545.020	0.623093
545.363	0.619875
545.706	0.616779
546.049	0.613655
546.392	0.610556
546.735	0.607351
547.078	0.604025
547.421	0.600595
547.764	0.597118
548.106	0.593577
548.449	0.589844
548.792	0.586204
549.135	0.582509
549.477	0.578869
549.820	0.575322
550.162	0.571788
550.505	0.568163
550.847	0.564554
551.190	0.560681
551.532	0.556732
551.875	0.552593
552.217	0.548345
552.559	0.544185
552.901	0.540066
553.244	0.536011
553.586	0.532051
553.928	0.528290
554.270	0.524511
554.612	0.520782
554.954	0.517041
555.296	0.513207
555.638	0.509348
555.980	0.505249
556.322	0.500926
556.663	0.496445
557.005	0.491826
557.347	0.487316
557.689	0.482948
558.030	0.478603
558.372	0.474257
558.713	0.469943
559.055	0.465740
559.396	0.461463
559.738	0.457123
560.079	0.452695
560.421	0.448336
560.762	0.444089
561.103	0.439815
561.444	0.435653
561.786	0.431542
562.127	0.427466
562.468	0.423371
562.809	0.419198
563.150	0.414852
563.491	0.410483
563.832	0.405884
564.173	0.401174
564.514	0.396353
564.855	0.391387
565.195	0.386332
565.536	0.381270
565.877	0.376313
566.218	0.371430
566.558	0.366725
566.899	0.362225
567.239	0.357930
567.580	0.353880
567.920	0.350060
568.261	0.346548
568.601	0.343180
568.941	0.339988
569.282	0.336921
569.622	0.333919
569.962	0.330917
570.302	0.327970
570.643	0.325146
570.983	0.322421
571.323	0.319850
571.663	0.317273
572.003	0.314711
572.343	0.312175
572.683	0.309517
573.022	0.306758
573.362	0.303911
573.702	0.301021
574.042	0.298169
574.381	0.295388
574.721	0.292664
575.061	0.290045
575.400	0.287580
575.740	0.285173
576.079	0.282775
576.419	0.280270
576.758	0.277687
577.097	0.275033
577.437	0.272288
577.776	0.269466
578.115	0.266695
578.454	0.264028
578.794	0.261641
579.133	0.259485
579.472	0.257482
579.811	0.255618
580.150	0.253782
580.489	0.251885
580.828	0.249876
581.167	0.247802
581.505	0.245726
581.844	0.243669
582.183	0.241595
582.522	0.239567
582.860	0.237594
583.199	0.235715
583.538	0.233947
583.876	0.232209
584.215	0.230443
584.553	0.228655
584.891	0.226897
585.230	0.225085
585.568	0.223213
585.906	0.221263
586.245	0.219349
586.583	0.217516
586.921	0.215877
587.259	0.214384
587.597	0.212941
587.935	0.211445
588.273	0.209836
588.611	0.208027
588.949	0.206115
589.287	0.204156
589.625	0.202168
589.963	0.200292
590.300	0.198481
590.638	0.196758
590.976	0.195079
591.313	0.193392
591.651	0.191687
591.989	0.189998
592.326	0.188443
592.664	0.186986
593.001	0.185588
593.338	0.184301
593.676	0.183121
594.013	0.181941
594.350	0.180766
594.687	0.179700
595.025	0.178681
595.362	0.177620
595.699	0.176526
596.036	0.175410
596.373	0.174286
596.710	0.173104
597.047	0.171877
597.384	0.170679
597.720	0.169480
598.057	0.168259
598.394	0.167042
598.731	0.165875
599.067	0.164732
599.404	0.163558
599.741	0.162435
600.077	0.161373
600.414	0.160387
600.750	0.159472
601.087	0.158603
601.423	0.157706
601.759	0.156789
602.096	0.155859
602.432	0.154982
602.768	0.154077
603.104	0.153146
603.440	0.152209
603.776	0.151335
604.112	0.150488
604.448	0.149652
604.784	0.148840
605.120	0.148051
605.456	0.147292
605.792	0.146558
606.128	0.145775
606.463	0.145021
606.799	0.144216
607.135	0.143424
607.470	0.142646
607.806	0.141841
608.142	0.141074
608.477	0.140356
608.812	0.139621
609.148	0.138921
609.483	0.138153
609.819	0.137402
610.154	0.136674
610.489	0.135925
610.824	0.135187
611.159	0.134462
611.494	0.133739
611.830	0.133078
612.165	0.132503
612.500	0.131961
612.834	0.131408
613.169	0.130865
613.504	0.130267
613.839	0.129708
614.174	0.129110
614.509	0.128482
614.843	0.127872
615.178	0.127260
615.512	0.126718
615.847	0.126148
616.182	0.125629
616.516	0.125167
616.850	0.124701
617.185	0.124212
617.519	0.123748
617.853	0.123233
618.188	0.122621
618.522	0.122014
618.856	0.121344
619.190	0.120663
619.524	0.119997
619.858	0.119370
620.192	0.118800
620.526	0.118282
620.860	0.117766
621.194	0.117254
621.528	0.116745
621.862	0.116286
622.195	0.115861
622.529	0.115285
622.863	0.114817
623.196	0.114309
623.530	0.113858
623.864	0.113380
624.197	0.112924
624.530	0.112450
624.864	0.112054
625.197	0.111699
625.531	0.111302
625.864	0.110929
626.197	0.110465
626.530	0.110065
626.863	0.109546
627.196	0.109014
627.529	0.108508
627.862	0.107980
628.195	0.107487
628.528	0.107004
628.861	0.106450
629.194	0.105940
629.527	0.105512
629.860	0.105041
630.192	0.104516
630.525	0.103956
630.858	0.103455
631.190	0.102922
631.523	0.102386
631.855	0.101759
632.188	0.101238
632.520	0.100707
632.852	0.100187
633.185	0.099788
633.517	0.099302
633.849	0.098893
634.182	0.098527
634.514	0.098186
634.846	0.097920
635.178	0.097605
635.510	0.097287
635.842	0.096986
636.174	0.096662
636.506	0.096349
636.837	0.096028
637.169	0.095738
637.501	0.095396
637.833	0.095165
638.164	0.094839
638.496	0.094523
638.828	0.094179
639.159	0.093763
639.491	0.093350
639.822	0.092854
640.154	0.092272
640.485	0.091694
640.816	0.091107
641.147	0.090566
641.479	0.089925
641.810	0.089351
642.141	0.088786
642.472	0.088237
642.803	0.087683
643.134	0.087129
643.465	0.086633
643.796	0.086136
644.127	0.085683
644.458	0.085374
644.789	0.084963
645.119	0.084749
645.450	0.084681
645.781	0.084697
646.111	0.084776
646.442	0.084808
646.773	0.084840
647.103	0.084785
647.433	0.084721
647.764	0.084625
648.094	0.084414
648.425	0.084329
648.755	0.084251
649.085	0.084133
649.415	0.084088
649.745	0.084131
650.075	0.084063
650.405	0.083861
650.735	0.082275
651.065	0.073678
651.395	0.067077
651.725	0.055878
652.055	0.037932
652.385	0.027560
652.715	0.020802
653.044	0.016051
653.374	0.012551
653.704	0.009877
654.033	0.012174
654.363	0.016244
654.692	0.018435
655.022	0.019667
655.351	0.020380
655.680	0.020770
656.010	0.020975
656.339	0.021041
656.668	0.021032
656.997	0.020983
657.326	0.020917
657.655	0.020873
657.984	0.020690
658.313	0.018734
658.642	0.016987
658.971	0.020066
659.300	0.023972
659.629	0.029109
659.958	0.036141
660.286	0.046387
660.615	0.062647
660.944	0.073662
661.272	0.071559
661.601	0.070913
661.929	0.071132
662.258	0.071839
662.586	0.072703
662.915	0.073213
663.243	0.073412
663.571	0.073380
663.899	0.073251
664.228	0.072992
664.556	0.072755
664.884	0.072598
665.212	0.072413
665.540	0.072230
665.868	0.072115
666.196	0.072057
666.524	0.071937
666.852	0.071823
667.179	0.071525
667.507	0.071308
667.835	0.071270
668.162	0.071198
668.490	0.071144
668.818	0.071122
669.145	0.071083
669.473	0.071051
669.800	0.070960
670.127	0.070970
670.455	0.070947
670.782	0.070938
671.109	0.070851
671.436	0.070868
671.764	0.070816
672.091	0.070789
672.418	0.070755
672.745	0.070684
673.072	0.070631
673.399	0.070473
673.726	0.070343
674.053	0.070298
674.379	0.070269
674.706	0.070072
675.033	0.069769
675.359	0.069568
675.686	0.069338
676.013	0.069118
676.339	0.068869
676.666	0.068695
676.992	0.068453
677.318	0.068231
677.645	0.068077
677.971	0.067944
678.297	0.067824
678.624	0.067721
678.950	0.067526
679.276	0.067339
679.602	0.067109
679.928	0.066864
680.254	0.066628
680.580	0.066360
680.906	0.066129
681.232	0.065978
681.558	0.065958
681.883	0.065925
682.209	0.065920
682.535	0.065853
682.860	0.065748
683.186	0.065748
683.511	0.065608
683.837	0.065450
684.162	0.065308
684.488	0.065123
684.813	0.065029
685.138	0.064816
685.464	0.064648
685.789	0.064499
686.114	0.064308
686.439	0.064163
686.764	0.064023
687.089	0.063956
687.414	0.063929
687.739	0.063881
688.064	0.063785
688.389	0.063588
688.714	0.063462
689.039	0.063134
689.363	0.062911
689.688	0.062720
690.013	0.062379
690.337	0.062215
690.662	0.062090
690.986	0.061981
691.311	0.061805
691.635	0.061631
691.959	0.061481
692.284	0.061216
692.608	0.060951
692.932	0.060807
693.256	0.060813
693.580	0.060751
693.904	0.060662
694.228	0.060629
694.552	0.060610
694.876	0.060533
695.200	0.060417
695.524	0.060187
695.848	0.060005
696.172	0.059720
696.495	0.059395
696.819	0.059200
697.143	0.058850
697.466	0.058591
697.790	0.058199
698.113	0.057965
698.437	0.057639
698.760	0.057375
699.083	0.057275
699.407	0.057206
699.730	0.057098
700.053	0.056860
700.376	0.056615
700.699	0.056273
701.022	0.055799
701.345	0.055141
701.668	0.054507
701.991	0.053855
702.314	0.053129
702.637	0.052473
702.960	0.051919
703.283	0.051474
703.605	0.051021
703.928	0.050801
704.251	0.050643
704.573	0.050579
704.896	0.050473
705.218	0.050298
705.540	0.050098
705.863	0.049755
706.185	0.049292
706.507	0.048804
706.830	0.048261
707.152	0.047706
707.474	0.047237
707.796	0.046772
708.118	0.046451
708.440	0.046167
708.762	0.045928
709.084	0.045823
709.406	0.045620
709.728	0.045415
710.049	0.045210
710.371	0.044967
710.693	0.044617
711.014	0.044176
711.336	0.043876
711.658	0.043535
711.979	0.043307
712.301	0.043068
712.622	0.042905
712.943	0.042769
713.265	0.042617
713.586	0.042539
713.907	0.042533
714.228	0.042521
714.549	0.042508
714.870	0.042493
715.191	0.042406
715.512	0.042390
715.833	0.042336
716.154	0.042244
716.475	0.042082
716.796	0.041867
717.117	0.041568
717.437	0.041284
717.758	0.040958
718.078	0.040482
718.399	0.040069
718.719	0.039675
719.040	0.039289
719.360	0.038993
719.681	0.038760
720.001	0.038577
720.321	0.038353
720.642	0.038114
720.962	0.037801
721.282	0.037673
721.602	0.037507
721.922	0.037342
722.242	0.037094
722.562	0.036872
722.882	0.036786
723.202	0.036749
723.521	0.036668
723.841	0.036659
724.161	0.036564
724.481	0.036491
724.800	0.036372
725.120	0.036258
725.439	0.036143
725.759	0.036062
726.078	0.036002
726.398	0.035888
726.717	0.035829
727.036	0.035827
727.355	0.035890
727.675	0.036076
727.994	0.036160
728.313	0.036256
728.632	0.036350
728.951	0.036393
729.270	0.036328
729.589	0.036177
729.908	0.035989
730.226	0.035725
730.545	0.035525
730.864	0.035370
731.182	0.035199
731.501	0.035107
731.820	0.035051
732.138	0.035003
732.457	0.034840
732.775	0.034660
733.093	0.034567
733.412	0.034439
733.730	0.034341
734.048	0.034148
734.367	0.033877
734.685	0.033539
735.003	0.033155
735.321	0.032858
735.639	0.032543
735.957	0.032324
736.275	0.032125
736.593	0.032016
736.910	0.031967
737.228	0.031815
737.546	0.031661
737.863	0.031554
738.181	0.031340
738.499	0.031098
738.816	0.030860
739.134	0.030682
739.451	0.030572
739.768	0.030449
740.086	0.030265
740.403	0.029990
740.720	0.029703
741.038	0.029444
741.355	0.029228
741.672	0.028962
741.989	0.028606
742.306	0.028325
742.623	0.027979
742.940	0.027615
743.257	0.026991
743.573	0.026586
743.890	0.026174
744.207	0.025758
744.523	0.025408
744.840	0.025119
745.157	0.024797
745.473	0.024392
745.790	0.024212
746.106	0.023884
746.422	0.023556
746.739	0.023335
747.055	0.023167
747.371	0.023086
747.687	0.023084
748.004	0.023087
748.320	0.023158
748.636	0.023120
748.952	0.023102
749.268	0.023098
749.584	0.023174
749.899	0.023336
750.215	0.023389
750.531	0.023438
750.847	0.023520
751.162	0.023578
751.478	0.023648
751.793	0.023614
752.109	0.023647
752.424	0.023611
752.740	0.023588
753.055	0.023658
753.370	0.023687
753.686	0.023864
754.001	0.024118
754.316	0.024317
754.631	0.024553
754.946	0.024698
755.261	0.024928
755.576	0.025064
755.891	0.025126
756.206	0.025068
756.521	0.024999
756.836	0.025001
757.150	0.025003
757.465	0.025064
757.780	0.025099
758.094	0.025155
758.409	0.025272
758.723	0.025418
759.038	0.025432
759.352	0.025452
759.667	0.025404
759.981	0.025383
760.295	0.025191
760.609	0.024978
760.923	0.024801
761.238	0.024528
761.552	0.024363
761.866	0.024185
762.180	0.024116
762.493	0.024095
762.807	0.024068
763.121	0.024059
763.435	0.023903
763.749	0.023733
764.062	0.023540
764.376	0.023302
764.689	0.023079
765.003	0.022843
765.316	0.022707
765.630	0.022704
765.943	0.022655
766.257	0.022610
766.570	0.022500
766.883	0.022433
767.196	0.022241
767.509	0.021959
767.822	0.021784
768.135	0.021534
768.448	0.021304
768.761	0.021022
769.074	0.020751
769.387	0.020524
769.700	0.020305
770.013	0.020161
770.325	0.020056
770.638	0.019901
770.950	0.019783
771.263	0.019656
771.575	0.019482
771.888	0.019129
772.200	0.018821
772.513	0.018475
772.825	0.018133
773.137	0.017780
773.449	0.017529
773.761	0.017294
774.074	0.017087
774.386	0.016789
774.698	0.016542
775.010	0.016175
775.321	0.015930
775.633	0.015656
775.945	0.015621
776.257	0.015593
776.568	0.015547
776.880	0.015535
777.192	0.015539
777.503	0.015553
777.815	0.015584
778.126	0.015693
778.438	0.015881
778.749	0.016096
779.060	0.016352
779.372	0.016530
779.683	0.016737
779.994	0.016858
780.305	0.016983
780.616	0.017146
780.927	0.017336
781.238	0.017413
781.549	0.017566
781.860	0.017592
782.171	0.017717
782.481	0.017722
782.792	0.017660
783.103	0.017686
783.413	0.017726
783.724	0.017649
784.034	0.017630
784.345	0.017578
784.655	0.017490
784.966	0.017420
785.276	0.017308
785.586	0.017201
785.896	0.017202
786.207	0.017165
786.517	0.017139
786.827	0.017215
787.137	0.017140
787.447	0.017080
787.757	0.017189
788.066	0.017193
788.376	0.017256
788.686	0.017285
788.996	0.017351
789.305	0.017423
789.615	0.017464
789.925	0.017495
790.234	0.017633
790.544	0.017680
790.853	0.017792
791.162	0.017958
791.472	0.018135
791.781	0.018271
792.090	0.018353
792.399	0.018312
792.708	0.018264
793.017	0.018178
793.326	0.018018
793.635	0.017955
793.944	0.017826
794.253	0.017563
794.562	0.017367
794.871	0.017331
795.179	0.017184
795.488	0.017075
795.797	0.017071
796.105	0.016895
796.414	0.016908
796.722	0.016856
797.031	0.016826
797.339	0.016629
797.647	0.016389
797.956	0.015917
798.264	0.015498
798.572	0.015143
798.880	0.014786
799.188	0.014414
799.496	0.014180
799.804	0.014110
800.112	0.014015
800.420	0.013963
800.728	0.014078
801.035	0.014115
801.343	0.013821
801.651	0.013544
801.958	0.013277
802.266	0.013134
802.573	0.013323
802.881	0.013285
803.188	0.013331
803.496	0.013511
803.803	0.013759
804.110	0.013866
804.417	0.014021
804.724	0.014038
805.032	0.014009
805.339	0.014053
805.646	0.014125
805.953	0.013985
806.259	0.013959
806.566	0.013850
806.873	0.013860
807.180	0.013691
807.486	0.013761
807.793	0.013835
808.100	0.014047
808.406	0.014091
808.713	0.014069
809.019	0.013648
809.326	0.013359
809.632	0.013003
809.938	0.012318
810.244	0.011738
810.551	0.011335
810.857	0.010886
811.163	0.010736
811.469	0.010591
811.775	0.010444
812.081	0.010457
812.387	0.010528
812.692	0.010358
812.998	0.010497
813.304	0.010463
813.610	0.010638
813.915	0.010571
814.221	0.010556
814.526	0.010361
814.832	0.010458
815.137	0.010325
815.443	0.010555
815.748	0.010539
816.053	0.010549
816.358	0.010538
816.664	0.010523
816.969	0.010542
817.274	0.010870
817.579	0.010837
817.884	0.010727
818.189	0.010901
818.493	0.010803
818.798	0.010837
819.103	0.010787
819.408	0.010583
819.712	0.010407
820.017	0.010072
820.321	0.009872
820.626	0.009738
820.930	0.009560
821.235	0.009241
821.539	0.009139
821.843	0.008998
822.148	0.008878
822.452	0.008906
822.756	0.009197
823.060	0.009196
823.364	0.009338
823.668	0.009320
823.972	0.009315
824.276	0.009331
824.580	0.008958
824.883	0.009084
825.187	0.009195
825.491	0.009210
825.795	0.009118
826.098	0.009119
826.402	0.009151
826.705	0.009107
827.008	0.008957
827.312	0.008989
827.615	0.008740
827.918	0.008624
828.222	0.008265
828.525	0.008038
828.828	0.007956
829.131	0.007628
829.434	0.007420
829.737	0.006960
830.040	0.006239
830.343	0.005670
830.645	0.005526
830.948	0.005358
831.251	0.004891
831.553	0.004407
831.856	0.004043
832.159	0.004063
832.461	0.003923
832.764	0.003895
833.066	0.003722
833.368	0.003630
833.671	0.003224
833.973	0.003368
834.275	0.003032
834.577	0.003072
834.879	0.003082
835.181	0.002701
835.483	0.002534
835.785	0.002131
836.087	0.001938
836.389	0.001806
836.690	0.001368
836.992	0.000534
837.294	-0.000124
837.595	-0.000824
837.897	-0.001494
838.198	-0.002027
838.500	-0.002589
838.801	-0.003123
839.103	-0.003867
839.404	-0.004312
839.705	-0.004819
840.006	-0.004921
840.307	-0.004938
840.608	-0.004921
840.910	-0.005075
841.210	-0.004933
841.511	-0.004786
841.812	-0.004686
842.113	-0.004021
842.414	-0.004389
842.715	-0.004518
843.015	-0.004765
843.316	-0.004933
843.616	-0.005731
843.917	-0.006120
844.217	-0.006420
844.518	-0.006602
844.818	-0.007283
845.118	-0.007102
845.419	-0.006876
845.719	-0.007119
846.019	-0.007531
846.319	-0.007719
846.619	-0.008235
846.919	-0.008071
847.219	-0.008155
847.519	-0.008700
847.819	-0.008430
848.118	-0.009460
848.418	-0.010471
848.718	-0.010792
849.017	-0.011078
849.317	-0.011208
849.616	-0.011144
849.916	-0.010329
850.215	-0.009649
850.515	-0.009224
850.814	-0.008773
851.113	-0.008293
851.412	-0.007989
851.712	-0.007976
852.011	-0.008056
852.310	-0.007536
852.609	-0.007281
852.908	-0.007033
853.206	-0.006858
853.505	-0.006487
853.804	-0.006463
854.103	-0.006531
854.401	-0.006179
854.700	-0.006019
854.999	-0.006077
855.297	-0.006052
855.595	-0.005787
855.894	-0.005682
856.192	-0.005930
856.491	-0.006127
856.789	-0.006300
857.087	-0.006653
857.385	-0.007050
857.683	-0.007702
857.981	-0.008204
858.279	-0.008573
858.577	-0.009621
858.875	-0.010055
859.173	-0.011062
859.471	-0.011552
859.768	-0.012183
860.066	-0.012857
860.363	-0.013403
860.661	-0.014260
860.959	-0.014215
861.256	-0.013747
861.553	-0.013759
861.851	-0.014606
862.148	-0.014997
862.445	-0.015119
862.742	-0.015570
863.039	-0.016095
863.337	-0.016301
863.634	-0.016814
863.931	-0.017367
864.227	-0.017346
864.524	-0.016952
864.821	-0.016420
865.118	-0.017033
865.415	-0.016700
865.711	-0.016845
866.008	-0.017734
866.304	-0.017136
866.601	-0.017830
866.897	-0.017710
867.194	-0.018613
867.490	-0.018970
867.786	-0.019528
868.082	-0.019317
868.379	-0.019807
868.675	-0.019973
868.971	-0.020296
869.267	-0.020646
869.563	-0.020465
869.859	-0.020096
870.154	-0.020034
870.450	-0.020075
870.746	-0.020683
871.042	-0.020772
871.337	-0.020699
871.633	-0.021203
871.928	-0.021657
872.224	-0.021747
872.519	-0.022492
872.815	-0.022283
873.110	-0.022316
873.405	-0.022580
873.700	-0.023147
873.995	-0.023449
874.291	-0.023715
874.586	-0.023340
874.881	-0.023375
875.175	-0.023147
875.470	-0.023135
875.765	-0.023912
876.060	-0.024325
876.355	-0.024363
876.649	-0.024744
876.944	-0.024614
877.238	-0.024752
877.533	-0.024421
877.827	-0.023873
878.122	-0.023648
878.416	-0.023350
878.710	-0.022625
879.005	-0.022563
879.299	-0.022962
879.593	-0.023111
879.887	-0.023330
880.181	-0.023623
880.475	-0.023076
880.769	-0.023486
881.063	-0.023538
881.356	-0.023722
881.650	-0.024036
881.944	-0.024227
882.238	-0.034190
882.531	-0.030304
882.825	-0.032720
883.118	-0.038579
883.412	-0.010326
883.705	-0.033766
883.998	-0.025979
884.291	-0.025010
884.585	-0.032946
884.878	-0.032848
>>>>>>>>>> END of Data <<<<<<<<<<
>>>>>>>>>> Raw Data Start <<<<<<<<
190.664	-392
191.040	5
191.415	5
191.791	9
192.166	10
192.542	8
192.917	9
193.293	7
193.668	3
194.044	6
194.419	-10
194.794	10
195.170	10
195.545	10
195.920	10
196.296	11
196.671	11
197.046	12
197.421	13
197.796	13
198.171	14
198.546	14
198.922	14
199.297	15
199.672	15
200.047	15
200.422	16
200.796	15
201.171	15
201.546	15
201.921	15
202.296	15
202.671	15
203.045	15
203.420	15
203.795	15
204.170	15
204.544	15
204.919	15
205.294	15
205.668	15
206.043	14
206.417	14
206.792	14
207.166	14
207.541	14
207.915	14
208.289	14
208.664	14
209.038	14
209.412	14
209.787	14
210.161	14
210.535	14
210.909	14
211.284	14
211.658	14
212.032	14
212.406	14
212.780	14
213.154	14
213.528	14
213.902	14
214.276	14
214.650	14
215.024	14
215.398	14
215.772	14
216.145	14
216.519	14
216.893	14
217.267	14
217.640	15
218.014	15
218.388	15
218.761	15
219.135	15
219.508	16
219.882	16
220.256	16
220.629	16
221.003	16
221.376	16
221.749	16
222.123	16
222.496	16
222.869	16
223.243	16
223.616	16
223.989	16
224.362	16
224.736	17
225.109	17
225.482	17
225.855	16
226.228	16
226.601	16
226.974	16
227.347	16
227.720	16
228.093	15
228.466	15
228.839	15
229.212	15
229.585	15
229.957	15
230.330	15
230.703	15
231.076	15
231.448	15
231.821	15
232.194	14
232.566	14
232.939	14
233.311	14
233.684	14
234.056	14
234.429	15
234.801	14
235.174	15
235.546	15
235.918	15
236.291	16
236.663	16
237.035	16
237.408	16
237.780	16
238.152	16
238.524	17
238.896	17
239.268	17
239.641	17
240.013	17
240.385	17
240.757	17
241.129	17
241.500	17
241.872	17
242.244	17
242.616	17
242.988	16
243.360	17
243.731	16
244.103	16
244.475	16
244.847	17
245.218	16
245.590	16
245.961	16
246.333	16
246.705	16
247.076	16
247.448	16
247.819	16
248.190	16
248.562	16
248.933	16
249.305	17
249.676	17
250.047	17
250.418	17
250.790	17
251.161	17
251.532	17
251.903	17
252.274	16
252.645	16
253.016	16
253.387	17
253.758	17
254.129	17
254.500	17
254.871	17
255.242	17
255.613	17
255.984	17
256.355	17
256.725	17
257.096	17
257.467	17
257.838	17
258.208	17
258.579	17
258.949	17
259.320	17
259.690	18
260.061	18
260.431	18
260.802	18
261.172	18
261.543	18
261.913	18
262.283	18
262.654	18
263.024	18
263.394	18
263.764	18
264.135	18
264.505	19
264.875	19
265.245	18
265.615	18
265.985	18
266.355	18
266.725	18
267.095	18
267.465	18
267.835	18
268.205	18
268.575	18
268.944	18
269.314	17
269.684	17
270.054	17
270.423	17
270.793	17
271.163	16
271.532	17
271.902	16
272.271	16
272.641	16
273.010	17
273.380	17
273.749	17
274.119	17
274.488	17
274.857	17
275.227	18
275.596	18
275.965	18
276.335	18
276.704	19
277.073	18
277.442	19
277.811	19
278.180	19
278.549	19
278.918	19
279.287	19
279.656	19
280.025	20
280.394	19
280.763	19
281.132	19
281.501	19
281.869	19
282.238	19
282.607	19
282.976	19
283.344	18
283.713	18
284.081	18
284.450	18
284.819	18
285.187	18
285.556	18
285.924	18
286.292	18
286.661	18
287.029	18
287.398	18
287.766	18
288.134	19
288.502	18
288.871	19
289.239	19
289.607	19
289.975	18
290.343	19
290.711	19
291.079	19
291.447	19
291.815	19
292.183	19
292.551	19
292.919	19
293.287	19
293.655	19
294.022	18
294.390	18
294.758	18
295.126	18
295.493	17
295.861	17
296.229	17
296.596	17
296.964	17
297.331	18
297.699	18
298.066	18
298.434	18
298.801	18
299.168	18
299.536	18
299.903	18
300.270	18
300.638	19
301.005	18
301.372	19
301.739	19
302.106	19
302.473	19
302.840	19
303.207	19
303.574	19
303.941	19
304.308	19
304.675	20
305.042	19
305.409	19
305.776	19
306.143	19
306.509	20
306.876	19
307.243	20
307.610	20
307.976	20
308.343	20
308.709	20
309.076	20
309.442	20
309.809	20
310.175	20
310.542	20
310.908	20
311.275	21
311.641	21
312.007	20
312.373	20
312.740	21
313.106	21
313.472	20
313.838	21
314.204	21
314.570	21
314.936	22
315.302	22
315.668	22
316.034	22
316.400	22
316.766	22
317.132	22
317.498	22
317.864	22
318.230	23
318.595	23
318.961	23
319.327	23
319.692	24
320.058	25
320.424	25
320.789	26
321.155	27
321.520	27
321.886	27
322.251	28
322.616	28
322.982	29
323.347	30
323.712	30
324.078	31
324.443	32
324.808	34
325.173	34
325.539	35
325.904	36
326.269	37
326.634	38
326.999	39
327.364	40
327.729	40
328.094	41
328.459	41
328.823	42
329.188	43
329.553	44
329.918	45
330.283	46
330.647	46
331.012	47
331.377	48
331.741	49
332.106	50
332.470	51
332.835	52
333.199	53
333.564	54
333.928	55
334.293	56
334.657	57
335.021	58
335.386	59
335.750	61
336.114	62
336.478	63
336.843	65
337.207	66
337.571	67
337.935	68
338.299	70
338.663	71
339.027	73
339.391	74
339.755	75
340.119	76
340.483	78
340.846	78
341.210	79
341.574	81
341.938	82
342.301	83
342.665	84
343.029	85
343.392	86
343.756	88
344.119	89
344.483	90
344.846	91
345.210	92
345.573	93
345.937	94
346.300	95
346.663	96
347.027	97
347.390	98
347.753	99
348.116	100
348.479	101
348.843	102
349.206	103
349.569	105
349.932	106
350.295	106
350.658	107
351.021	108
351.383	108
351.746	109
352.109	110
352.472	110
352.835	111
353.197	112
353.560	112
353.923	113
354.285	113
354.648	114
355.011	115
355.373	116
355.736	116
356.098	117
356.461	117
356.823	118
357.185	118
357.548	119
357.910	119
358.272	120
358.635	121
358.997	122
359.359	122
359.721	123
360.083	124
360.445	124
360.807	125
361.169	125
361.531	125
361.893	126
362.255	126
362.617	126
362.979	126
363.341	127
363.703	128
364.064	128
364.426	129
364.788	129
365.149	129
365.511	130
365.873	130
366.234	130
366.596	130
366.957	130
367.319	130
367.680	131
368.042	131
368.403	131
368.764	131
369.126	131
369.487	131
369.848	131
370.209	131
370.570	132
370.931	131
371.293	131
371.654	131
372.015	131
372.376	130
372.737	130
373.098	130
373.458	130
373.819	130
374.180	130
374.541	130
374.902	130
375.263	130
375.623	131
375.984	130
376.345	131
376.705	131
377.066	131
377.426	131
377.787	131
378.147	131
378.508	132
378.868	132
379.228	132
379.589	132
379.949	133
380.309	133
380.670	133
381.030	133
381.390	133
381.750	133
382.110	133
382.470	133
382.830	133
383.190	133
383.550	133
383.910	133
384.270	133
384.630	134
384.990	134
385.350	134
385.709	134
386.069	134
386.429	135
386.788	134
387.148	134
387.508	135
387.867	135
388.227	135
388.586	136
388.946	136
389.305	137
389.665	137
390.024	138
390.383	139
390.743	139
391.102	139
391.461	140
391.820	140
392.179	140
392.539	140
392.898	140
393.257	141
393.616	140
393.975	141
394.334	142
394.693	143
395.051	144
395.410	144
395.769	145
396.128	145
396.487	146
396.845	146
397.204	146
397.563	146
397.921	146
398.280	146
398.638	146
398.997	146
399.355	146
399.714	146
400.072	146
400.431	147
400.789	147
401.147	148
401.506	148
401.864	148
402.222	148
402.580	148
402.938	148
403.297	148
403.655	147
404.013	147
404.371	147
404.729	147
405.087	147
405.444	147
405.802	147
406.160	147
406.518	148
406.876	148
407.233	148
407.591	148
407.949	148
408.306	148
408.664	148
409.022	148
409.379	148
409.737	148
410.094	148
410.451	149
410.809	149
411.166	150
411.523	150
411.881	150
412.238	151
412.595	151
412.952	152
413.310	152
413.667	152
414.024	152
414.381	152
414.738	152
415.095	153
415.452	153
415.809	154
416.165	154
416.522	155
416.879	156
417.236	157
417.593	158
417.949	159
418.306	161
418.663	162
419.019	164
419.376	166
419.732	167
420.089	168
420.445	170
420.802	171
421.158	173
421.514	174
421.871	175
422.227	176
422.583	177
422.939	178
423.295	179
423.652	180
424.008	181
424.364	182
424.720	182
425.076	182
425.432	182
425.788	182
426.143	183
426.499	184
426.855	185
427.211	186
427.567	187
427.922	188
428.278	189
428.634	189
428.989	190
429.345	191
429.700	192
430.056	193
430.411	193
430.767	195
431.122	196
431.478	197
431.833	198
432.188	199
432.543	200
432.899	200
433.254	201
433.609	202
433.964	202
434.319	202
434.674	203
435.029	203
435.384	204
435.739	205
436.094	207
436.449	208
436.804	210
437.158	212
437.513	214
437.868	217
438.223	219
438.577	222
438.932	226
439.287	229
439.641	232
439.996	235
440.350	238
440.704	241
441.059	245
441.413	248
441.768	252
442.122	255
442.476	258
442.830	261
443.185	265
443.539	268
443.893	271
444.247	274
444.601	276
444.955	279
445.309	280
445.663	282
446.017	283
446.371	285
446.724	286
447.078	287
447.432	288
447.786	290
448.139	291
448.493	291
448.847	292
449.200	292
449.554	293
449.907	293
450.261	294
450.614	295
450.968	295
451.321	296
451.674	297
452.027	298
452.381	299
452.734	301
453.087	302
453.440	304
453.793	306
454.146	308
454.499	311
454.852	315
455.205	318
455.558	322
455.911	326
456.264	330
456.617	333
456.970	337
457.322	340
457.675	344
458.028	347
458.380	349
458.733	352
459.086	354
459.438	357
459.791	360
460.143	364
460.496	369
460.848	373
461.200	379
461.553	385
461.905	390
462.257	395
462.609	400
462.961	404
463.314	408
463.666	411
464.018	415
464.370	418
464.722	422
465.074	426
465.426	429
465.777	433
466.129	436
466.481	439
466.833	441
467.184	442
467.536	443
467.888	443
468.239	444
468.591	444
468.943	445
469.294	446
469.646	448
469.997	451
470.348	455
470.700	460
471.051	465
471.402	472
471.754	479
472.105	487
472.456	495
472.807	504
473.158	514
473.509	524
473.860	535
474.211	547
474.562	559
474.913	572
475.264	585
475.615	598
475.966	612
476.316	625
476.667	638
477.018	651
477.368	664
477.719	678
478.070	691
478.420	704
478.771	717
479.121	729
479.472	741
479.822	754
480.172	769
480.523	785
480.873	807
481.223	843
481.573	895
481.924	960
482.274	1033
482.624	1110
482.974	1188
483.324	1256
483.674	1309
484.024	1345
484.374	1370
484.724	1387
485.073	1399
485.423	1409
485.773	1420
486.123	1430
486.472	1440
486.822	1449
487.172	1457
487.521	1463
487.871	1467
488.220	1465
488.570	1449
488.919	1416
489.268	1371
489.618	1316
489.967	1258
490.316	1199
490.666	1148
491.015	1111
491.364	1091
491.713	1082
492.062	1081
492.411	1084
492.760	1090
493.109	1096
493.458	1102
493.807	1108
494.156	1113
494.505	1118
494.853	1124
495.202	1131
495.551	1140
495.900	1148
496.248	1157
496.597	1166
496.945	1175
497.294	1184
497.642	1193
497.991	1203
498.339	1215
498.688	1227
499.036	1239
499.384	1250
499.732	1260
500.081	1269
500.429	1277
500.777	1285
501.125	1292
501.473	1299
501.821	1307
502.169	1314
502.517	1321
502.865	1325
503.213	1329
503.561	1333
503.908	1335
504.256	1338
504.604	1339
504.952	1340
505.299	1341
505.647	1340
505.994	1338
506.342	1337
506.689	1335
507.037	1333
507.384	1332
507.732	1333
508.079	1333
508.426	1334
508.774	1335
509.121	1335
509.468	1335
509.815	1334
510.162	1334
510.509	1334
510.856	1333
511.203	1331
511.550	1330
511.897	1330
512.244	1329
512.591	1328
512.938	1327
513.284	1326
513.631	1325
513.978	1323
514.324	1321
514.671	1319
515.018	1316
515.364	1315
515.711	1314
516.057	1311
516.403	1310
516.750	1308
517.096	1305
517.443	1302
517.789	1299
518.135	1295
518.481	1293
518.827	1291
519.173	1288
519.519	1286
519.865	1284
520.211	1282
520.557	1281
520.903	1280
521.249	1279
521.595	1279
521.941	1278
522.287	1278
522.632	1277
522.978	1277
523.324	1277
523.669	1278
524.015	1280
524.360	1284
524.706	1289
525.051	1296
525.397	1303
525.742	1312
526.087	1320
526.433	1329
526.778	1336
527.123	1342
527.468	1347
527.813	1353
528.158	1358
528.504	1364
528.849	1373
529.193	1384
529.538	1396
529.883	1411
530.228	1429
530.573	1447
530.918	1467
531.263	1488
531.607	1506
531.952	1523
532.296	1538
532.641	1550
532.986	1559
533.330	1569
533.675	1579
534.019	1592
534.363	1608
534.708	1627
535.052	1647
535.396	1669
535.741	1691
536.085	1711
536.429	1729
536.773	1744
537.117	1757
537.461	1769
537.805	1780
538.149	1792
538.493	1804
538.837	1817
539.181	1833
539.524	1853
539.868	1874
540.212	1898
540.556	1923
540.899	1950
541.243	1974
541.586	1995
541.930	2012
542.273	2027
542.617	2038
542.960	2050
543.304	2066
543.647	2084
543.990	2108
544.333	2134
544.677	2160
545.020	2186
545.363	2208
545.706	2226
546.049	2241
546.392	2251
546.735	2258
547.078	2264
547.421	2270
547.764	2278
548.106	2286
548.449	2298
548.792	2314
549.135	2335
549.477	2359
549.820	2383
550.162	2404
550.505	2422
550.847	2437
551.190	2449
551.532	2460
551.875	2471
552.217	2484
552.559	2499
552.901	2518
553.244	2540
553.586	2564
553.928	2587
554.270	2610
554.612	2629
554.954	2646
555.296	2662
555.638	2677
555.980	2693
556.322	2712
556.663	2737
557.005	2769
557.347	2807
557.689	2847
558.030	2887
558.372	2924
558.713	2960
559.055	2993
559.396	3027
559.738	3062
560.079	3100
560.421	3142
560.762	3189
561.103	3241
561.444	3297
561.786	3355
562.127	3417
562.468	3484
562.809	3556
563.150	3637
563.491	3724
563.832	3820
564.173	3929
564.514	4053
564.855	4201
565.195	4381
565.536	4595
565.877	4843
566.218	5125
566.558	5442
566.899	5789
567.239	6165
567.580	6560
567.920	6968
568.261	7379
568.601	7802
568.941	8239
569.282	8691
569.622	9159
569.962	9649
570.302	10171
570.643	10711
570.983	11256
571.323	11784
571.663	12297
572.003	12787
572.343	13249
572.683	13685
573.022	14130
573.362	14599
573.702	15086
574.042	15574
574.381	16044
574.721	16494
575.061	16927
575.400	17323
575.740	17677
576.079	17996
576.419	18314
576.758	18673
577.097	19093
577.437	19551
577.776	20041
578.115	20553
578.454	21073
578.794	21550
579.133	21926
579.472	22193
579.811	22358
580.150	22430
580.489	22430
580.828	22399
581.167	22372
581.505	22363
581.844	22363
582.183	22362
582.522	22377
582.860	22405
583.199	22430
583.538	22423
583.876	22345
584.215	22177
584.553	21904
584.891	21533
585.230	21072
585.568	20559
585.906	20036
586.245	19564
586.583	19159
586.921	18823
587.259	18518
587.597	18212
587.935	17893
588.273	17566
588.611	17264
588.949	16999
589.287	16780
589.625	16612
589.963	16481
590.300	16380
590.638	16289
590.976	16183
591.313	16057
591.651	15936
591.989	15834
592.326	15751
592.664	15682
593.001	15627
593.338	15598
593.676	15588
594.013	15608
594.350	15677
594.687	15785
595.025	15905
595.362	16015
595.699	16097
596.036	16153
596.373	16174
596.710	16154
597.047	16107
597.384	16045
597.720	15975
598.057	15921
598.394	15885
598.731	15868
599.067	15877
599.404	15915
599.741	15989
600.077	16090
600.414	16200
600.750	16316
601.087	16406
601.423	16454
601.759	16466
602.096	16446
602.432	16406
602.768	16342
603.104	16250
603.440	16133
603.776	16007
604.112	15870
604.448	15730
604.784	15582
605.120	15423
605.456	15269
605.792	15106
606.128	14936
606.463	14761
606.799	14585
607.135	14425
607.470	14266
607.806	14108
608.142	13954
608.477	13805
608.812	13662
609.148	13517
609.483	13367
609.819	13212
610.154	13063
610.489	12927
610.824	12808
611.159	12709
611.494	12609
611.830	12521
612.165	12434
612.500	12335
612.834	12220
613.169	12088
613.504	11944
613.839	11782
614.174	11598
614.509	11413
614.843	11228
615.178	11054
615.512	10879
615.847	10709
616.182	10540
616.516	10367
616.850	10185
617.185	9996
617.519	9804
617.853	9597
618.188	9383
618.522	9187
618.856	9021
619.190	8878
619.524	8752
619.858	8652
620.192	8573
620.526	8503
620.860	8434
621.194	8368
621.528	8303
621.862	8237
622.195	8157
622.529	8073
622.863	7985
623.196	7897
623.530	7807
623.864	7717
624.197	7627
624.530	7539
624.864	7459
625.197	7376
625.531	7282
625.864	7168
626.197	7047
626.530	6915
626.863	6768
627.196	6607
627.529	6445
627.862	6284
628.195	6124
628.528	5966
628.861	5815
629.194	5680
629.527	5550
629.860	5422
630.192	5297
630.525	5179
630.858	5069
631.190	4965
631.523	4865
631.855	4771
632.188	4688
632.520	4612
632.852	4540
633.185	4465
633.517	4393
633.849	4329
634.182	4270
634.514	4213
634.846	4162
635.178	4118
635.510	4078
635.842	4042
636.174	4007
636.506	3972
636.837	3938
637.169	3904
637.501	3868
637.833	3828
638.164	3783
638.496	3734
638.828	3678
639.159	3615
639.491	3547
639.822	3477
640.154	3406
640.485	3336
640.816	3266
641.147	3197
641.479	3131
641.810	3067
642.141	3004
642.472	2943
642.803	2882
643.134	2825
643.465	2775
643.796	2736
644.127	2708
644.458	2693
644.789	2693
645.119	2708
645.450	2733
645.781	2761
646.111	2789
646.442	2814
646.773	2833
647.103	2849
647.433	2862
647.764	2876
648.094	2895
648.425	2918
648.755	2946
649.085	2979
649.415	3013
649.745	3049
650.075	3086
650.405	3128
650.735	3218
651.065	3864
651.395	5856
651.725	9128
652.055	12753
652.385	16373
652.715	19991
653.044	23612
653.374	27238
653.704	30870
654.033	34160
654.363	36205
654.692	37571
655.022	38464
655.351	39051
655.680	39417
656.010	39617
656.339	39709
656.668	39735
656.997	39725
657.326	39690
657.655	39592
657.984	38926
658.313	36904
658.642	33590
658.971	29912
659.300	26234
659.629	22556
659.958	18880
660.286	15203
660.615	11528
660.944	8204
661.272	6129
661.601	4734
661.929	3810
662.258	3186
662.586	2777
662.915	2528
663.243	2383
663.571	2301
663.899	2251
664.228	2220
664.556	2199
664.884	2185
665.212	2175
665.540	2168
665.868	2164
666.196	2162
666.524	2161
666.852	2162
667.179	2172
667.507	2189
667.835	2213
668.162	2245
668.490	2285
668.818	2332
669.145	2381
669.473	2431
669.800	2478
670.127	2518
670.455	2552
670.782	2581
671.109	2606
671.436	2627
671.764	2644
672.091	2659
672.418	2671
672.745	2681
673.072	2691
673.399	2704
673.726	2717
674.053	2727
674.379	2730
674.706	2730
675.033	2729
675.359	2726
675.686	2720
676.013	2718
676.339	2720
676.666	2728
676.992	2749
677.318	2777
677.645	2809
677.971	2839
678.297	2867
678.624	2893
678.950	2919
679.276	2943
679.602	2966
679.928	2991
680.254	3021
680.580	3059
680.906	3107
681.232	3167
681.558	3230
681.883	3292
682.209	3350
682.535	3403
682.860	3453
683.186	3493
683.511	3526
683.837	3547
684.162	3563
684.488	3577
684.813	3590
685.138	3603
685.464	3614
685.789	3624
686.114	3633
686.439	3646
686.764	3660
687.089	3669
687.414	3670
687.739	3659
688.064	3637
688.389	3610
688.714	3577
689.039	3541
689.363	3504
689.688	3463
690.013	3424
690.337	3388
690.662	3359
690.986	3333
691.311	3307
691.635	3280
691.959	3255
692.284	3239
692.608	3235
692.932	3241
693.256	3251
693.580	3265
693.904	3283
694.228	3304
694.552	3323
694.876	3332
695.200	3330
695.524	3316
695.848	3295
696.172	3269
696.495	3242
696.819	3213
697.143	3183
697.466	3152
697.790	3126
698.113	3108
698.437	3099
698.760	3098
699.083	3096
699.407	3087
699.730	3071
700.053	3047
700.376	3013
700.699	2965
701.022	2904
701.345	2839
701.668	2777
701.991	2726
702.314	2691
702.637	2674
702.960	2681
703.283	2709
703.605	2758
703.928	2824
704.251	2900
704.573	2975
704.896	3043
705.218	3099
705.540	3143
705.863	3179
706.185	3208
706.507	3234
706.830	3258
707.152	3283
707.474	3309
707.796	3339
708.118	3370
708.440	3401
708.762	3427
709.084	3448
709.406	3460
709.728	3463
710.049	3456
710.371	3442
710.693	3419
711.014	3395
711.336	3370
711.658	3349
711.979	3329
712.301	3311
712.622	3292
712.943	3268
713.265	3241
713.586	3211
713.907	3183
714.228	3159
714.549	3139
714.870	3126
715.191	3120
715.512	3119
715.833	3115
716.154	3106
716.475	3093
716.796	3074
717.117	3045
717.437	3011
717.758	2973
718.078	2934
718.399	2896
718.719	2862
719.040	2833
719.360	2810
719.681	2794
720.001	2783
720.321	2778
720.642	2775
720.962	2778
721.282	2784
721.602	2793
721.922	2803
722.242	2817
722.562	2835
722.882	2856
723.202	2876
723.521	2894
723.841	2913
724.161	2933
724.481	2953
724.800	2974
725.120	3000
725.439	3032
725.759	3068
726.078	3108
726.398	3158
726.717	3219
727.036	3288
727.355	3360
727.675	3431
727.994	3498
728.313	3563
728.632	3619
728.951	3665
729.270	3705
729.589	3743
729.908	3789
730.226	3841
730.545	3899
730.864	3961
731.182	4028
731.501	4095
731.820	4160
732.138	4215
732.457	4265
732.775	4310
733.093	4347
733.412	4369
733.730	4374
734.048	4364
734.367	4345
734.685	4319
735.003	4289
735.321	4262
735.639	4240
735.957	4223
736.275	4207
736.593	4184
736.910	4148
737.228	4099
737.546	4036
737.863	3962
738.181	3880
738.499	3794
738.816	3709
739.134	3626
739.451	3541
739.768	3455
740.086	3373
740.403	3297
740.720	3227
741.038	3161
741.355	3097
741.672	3033
741.989	2969
742.306	2902
742.623	2832
742.940	2765
743.257	2703
743.573	2648
743.890	2603
744.207	2570
744.523	2546
744.840	2530
745.157	2521
745.473	2520
745.790	2528
746.106	2547
746.422	2577
746.739	2614
747.055	2658
747.371	2708
747.687	2760
748.004	2810
748.320	2854
748.636	2893
748.952	2933
749.268	2972
749.584	3010
749.899	3043
750.215	3078
750.531	3118
750.847	3161
751.162	3206
751.478	3249
751.793	3294
752.109	3341
752.424	3392
752.740	3445
753.055	3504
753.370	3576
753.686	3658
754.001	3748
754.316	3842
754.631	3940
754.946	4046
755.261	4156
755.576	4264
755.891	4367
756.206	4470
756.521	4578
756.836	4688
757.150	4795
757.465	4887
757.780	4967
758.094	5035
758.409	5086
758.723	5118
759.038	5132
759.352	5132
759.667	5118
759.981	5092
760.295	5066
760.609	5046
760.923	5033
761.238	5026
761.552	5020
761.866	5013
762.180	5002
762.493	4975
762.807	4922
763.121	4842
763.435	4743
763.749	4633
764.062	4530
764.376	4444
764.689	4384
765.003	4352
765.316	4347
765.630	4360
765.943	4384
766.257	4413
766.570	4438
766.883	4443
767.196	4432
767.509	4404
767.822	4361
768.135	4306
768.448	4247
768.761	4184
769.074	4130
769.387	4088
769.700	4062
770.013	4046
770.325	4033
770.638	4015
770.950	3982
771.263	3928
771.575	3854
771.888	3759
772.200	3649
772.513	3529
772.825	3403
773.137	3274
773.449	3147
773.761	3024
774.074	2910
774.386	2808
774.698	2724
775.010	2654
775.321	2604
775.633	2571
775.945	2551
776.257	2540
776.568	2536
776.880	2543
777.192	2562
777.503	2589
777.815	2623
778.126	2667
778.438	2721
778.749	2778
779.060	2834
779.372	2886
779.683	2936
779.994	2982
780.305	3018
780.616	3043
780.927	3058
781.238	3063
781.549	3055
781.860	3035
782.171	3007
782.481	2976
782.792	2946
783.103	2914
783.413	2880
783.724	2844
784.034	2810
784.345	2777
784.655	2748
784.966	2718
785.276	2687
785.586	2657
785.896	2626
786.207	2594
786.517	2560
786.827	2527
787.137	2496
787.447	2465
787.757	2436
788.066	2409
788.376	2382
788.686	2355
788.996	2328
789.305	2301
789.615	2279
789.925	2267
790.234	2263
790.544	2268
790.853	2279
791.162	2290
791.472	2300
791.781	2304
792.090	2300
792.399	2286
792.708	2264
793.017	2240
793.326	2216
793.635	2194
793.944	2174
794.253	2156
794.562	2144
794.871	2136
795.179	2130
795.488	2123
795.797	2111
796.105	2093
796.414	2061
796.722	2018
797.031	1964
797.339	1899
797.647	1826
797.956	1749
798.264	1678
798.572	1619
798.880	1573
799.188	1540
799.496	1515
799.804	1497
800.112	1482
800.420	1470
800.728	1458
801.035	1442
801.343	1425
801.651	1411
801.958	1407
802.266	1413
802.573	1424
802.881	1439
803.188	1458
803.496	1479
803.803	1500
804.110	1519
804.417	1536
804.724	1551
805.032	1565
805.339	1577
805.646	1584
805.953	1589
806.259	1589
806.566	1587
806.873	1581
807.180	1573
807.486	1565
807.793	1555
808.100	1538
808.406	1512
808.713	1478
809.019	1438
809.326	1397
809.632	1358
809.938	1322
810.244	1289
810.551	1261
810.857	1238
811.163	1217
811.469	1196
811.775	1172
812.081	1148
812.387	1126
812.692	1109
812.998	1095
813.304	1085
813.610	1076
813.915	1069
814.221	1063
814.526	1058
814.832	1054
815.137	1049
815.443	1042
815.748	1032
816.053	1018
816.358	1004
816.664	991
816.969	979
817.274	968
817.579	960
817.884	955
818.189	953
818.493	952
818.798	950
819.103	943
819.408	934
819.712	923
820.017	912
820.321	899
820.626	887
820.930	875
821.235	868
821.539	864
821.843	864
822.148	866
822.452	867
822.756	867
823.060	863
823.364	858
823.668	850
823.972	842
824.276	833
824.580	826
824.883	822
825.187	820
825.491	820
825.795	821
826.098	821
826.402	820
826.705	817
827.008	811
827.312	802
827.615	789
827.918	773
828.222	754
828.525	736
828.828	718
829.131	700
829.434	682
829.737	665
830.040	652
830.343	641
830.645	632
830.948	622
831.251	612
831.553	604
831.856	598
832.159	591
832.461	583
832.764	575
833.066	567
833.368	560
833.671	555
833.973	551
834.275	548
834.577	544
834.879	539
835.181	534
835.483	527
835.785	520
836.087	511
836.389	500
836.690	487
836.992	474
837.294	460
837.595	445
837.897	429
838.198	414
838.500	399
838.801	386
839.103	375
839.404	366
839.705	357
840.006	350
840.307	345
840.608	341
840.910	338
841.210	336
841.511	333
841.812	330
842.113	325
842.414	321
842.715	315
843.015	308
843.316	301
843.616	295
843.917	290
844.217	285
844.518	280
844.818	277
845.118	275
845.419	273
845.719	272
846.019	270
846.319	269
846.619	268
846.919	267
847.219	266
847.519	264
847.819	263
848.118	263
848.418	267
848.718	275
849.017	288
849.317	307
849.616	330
849.916	356
850.215	385
850.515	416
850.814	447
851.113	476
851.412	501
851.712	524
852.011	545
852.310	565
852.609	583
852.908	598
853.206	612
853.505	625
853.804	636
854.103	646
854.401	653
854.700	656
854.999	653
855.297	645
855.595	632
855.894	613
856.192	591
856.491	566
856.789	537
857.087	509
857.385	482
857.683	458
857.981	436
858.279	416
858.577	397
858.875	380
859.173	367
859.471	356
859.768	347
860.066	339
860.363	332
860.661	327
860.959	322
861.256	318
861.553	313
861.851	307
862.148	301
862.445	294
862.742	289
863.039	284
863.337	280
863.634	277
863.931	275
864.227	273
864.524	272
864.821	272
865.118	271
865.415	268
865.711	264
866.008	260
866.304	254
866.601	250
866.897	245
867.194	242
867.490	239
867.786	238
868.082	238
868.379	239
868.675	239
868.971	240
869.267	240
869.563	240
869.859	240
870.154	238
870.450	237
870.746	236
871.042	235
871.337	235
871.633	236
871.928	237
872.224	238
872.519	241
872.815	242
873.110	243
873.405	243
873.700	242
873.995	242
874.291	242
874.586	243
874.881	244
875.175	246
875.470	250
875.765	255
876.060	260
876.355	265
876.649	271
876.944	276
877.238	280
877.533	284
877.827	288
878.122	290
878.416	291
878.710	291
879.005	290
879.299	289
879.593	288
879.887	287
880.181	286
880.475	284
880.769	281
881.063	279
881.356	276
881.650	272
881.944	268
882.238	225
882.531	214
882.825	211
883.118	218
883.412	207
883.705	215
883.998	219
884.291	225
884.585	230
884.878	239
>>>>>>>>>> END of Data <<<<<<<<<<