Date	2022年08月06日土曜日 12時58分22秒
Spectrometers	USB2+H05879
ダーク	使用
リファレンス	使用
積分時間[msec]	10
平均回数	1000
ｽﾑｰｼﾞﾝｸﾞ	0
Electrical Dark	USE
ピクセル数	2048
計測モード	吸光度
保存開始波長[nm]	190.664
保存終了波長[nm]	884.878
保存ﾋﾟｯﾁ波長[nm]	全波長

>>>>>>>>>> Data Start <<<<<<<<<<<<
190.664	0.000000
191.040	0.000000
191.415	0.000000
191.791	0.325149
192.166	0.000000
192.542	0.355343
192.917	0.387959
193.293	-0.003622
193.668	0.672961
194.044	0.317778
194.419	0.000000
194.794	-0.148384
195.170	-0.020865
195.545	0.000000
195.920	0.306387
196.296	0.000000
196.671	0.000000
197.046	1.256382
197.421	0.000000
197.796	-0.150245
198.171	0.000000
198.546	0.000000
198.922	0.000000
199.297	0.000000
199.672	0.000000
200.047	0.000000
200.422	0.000000
200.796	0.000000
201.171	-0.109447
201.546	0.000000
201.921	-0.806693
202.296	0.000000
202.671	0.363990
203.045	0.340646
203.420	0.045215
203.795	0.000000
204.170	-0.879286
204.544	0.000000
204.919	0.000000
205.294	0.000000
205.668	0.000000
206.043	0.302699
206.417	0.000000
206.792	0.000000
207.166	0.170166
207.541	0.000000
207.915	0.528837
208.289	0.000000
208.664	0.950699
209.038	0.377122
209.412	0.000000
209.787	0.414606
210.161	0.000000
210.535	0.000000
210.909	0.000000
211.284	0.000000
211.658	0.000000
212.032	0.000000
212.406	-1.027110
212.780	0.000000
213.154	1.073870
213.528	0.000000
213.902	0.000000
214.276	0.000000
214.650	0.441707
215.024	0.000000
215.398	0.369408
215.772	0.000000
216.145	0.000000
216.519	0.000000
216.893	0.370514
217.267	0.000000
217.640	0.000000
218.014	0.659407
218.388	0.000000
218.761	0.000000
219.135	0.000000
219.508	0.000000
219.882	0.371871
220.256	0.532741
220.629	0.000000
221.003	0.000000
221.376	0.045930
221.749	0.000000
222.123	0.000000
222.496	0.000000
222.869	0.000000
223.243	-0.144701
223.616	0.435499
223.989	0.052135
224.362	0.000000
224.736	-0.071795
225.109	1.021246
225.482	0.000000
225.855	0.203549
226.228	0.000000
226.601	-0.191729
226.974	0.000000
227.347	0.000000
227.720	0.000000
228.093	0.949867
228.466	0.000000
228.839	0.254492
229.212	0.000000
229.585	0.456526
229.957	0.000000
230.330	0.000000
230.703	0.000000
231.076	0.000000
231.448	0.000000
231.821	0.000000
232.194	0.000000
232.566	0.000000
232.939	0.000000
233.311	0.000000
233.684	0.000000
234.056	0.310892
234.429	0.725608
234.801	0.000000
235.174	0.079018
235.546	0.000000
235.918	0.000000
236.291	0.665954
236.663	0.000000
237.035	0.000000
237.408	0.498022
237.780	0.000000
238.152	0.938404
238.524	0.000000
238.896	0.000000
239.268	0.000000
239.641	0.365833
240.013	0.000000
240.385	0.622544
240.757	0.000000
241.129	1.348087
241.500	0.000000
241.872	0.485918
242.244	0.427839
242.616	0.000000
242.988	0.033103
243.360	0.331955
243.731	0.835704
244.103	0.000000
244.475	0.000000
244.847	0.000000
245.218	0.609610
245.590	0.000000
245.961	0.000000
246.333	0.000000
246.705	0.000000
247.076	0.000000
247.448	0.681851
247.819	-0.171711
248.190	1.730341
248.562	0.283099
248.933	0.238564
249.305	1.123058
249.676	0.000000
250.047	1.829444
250.418	0.000000
250.790	1.724037
251.161	0.000000
251.532	1.106126
251.903	0.464336
252.274	0.512608
252.645	0.203594
253.016	0.709730
253.387	1.262357
253.758	0.864217
254.129	0.000000
254.500	0.000000
254.871	0.000000
255.242	0.000000
255.613	0.000000
255.984	0.000000
256.355	0.000000
256.725	0.391918
257.096	0.083909
257.467	0.904691
257.838	0.799797
258.208	0.000000
258.579	0.853211
258.949	0.000000
259.320	0.000000
259.690	0.000000
260.061	0.377098
260.431	0.000000
260.802	1.213934
261.172	0.887031
261.543	-0.023705
261.913	0.592126
262.283	0.000000
262.654	0.000000
263.024	0.463369
263.394	0.000000
263.764	1.333101
264.135	1.010025
264.505	0.000000
264.875	-0.246656
265.245	0.000000
265.615	0.000000
265.985	0.000000
266.355	0.000000
266.725	0.000000
267.095	0.061135
267.465	0.478940
267.835	0.000000
268.205	0.000000
268.575	0.156820
268.944	0.000000
269.314	0.000000
269.684	0.315620
270.054	0.000000
270.423	0.000000
270.793	0.536856
271.163	0.000000
271.532	0.422357
271.902	0.376367
272.271	0.000000
272.641	0.000000
273.010	0.000000
273.380	0.000000
273.749	0.000000
274.119	0.114636
274.488	0.538222
274.857	0.104692
275.227	0.000000
275.596	0.000000
275.965	0.000000
276.335	0.461762
276.704	0.579150
277.073	0.000000
277.442	0.000000
277.811	0.000000
278.180	1.196259
278.549	0.000000
278.918	0.000000
279.287	-0.117647
279.656	0.000000
280.025	0.000000
280.394	0.000000
280.763	0.000000
281.132	0.000000
281.501	1.390719
281.869	0.706257
282.238	1.018076
282.607	0.584753
282.976	0.000000
283.344	0.000000
283.713	0.000000
284.081	0.000000
284.450	0.000000
284.819	0.621882
285.187	0.914152
285.556	0.000000
285.924	0.000000
286.292	0.000000
286.661	0.000000
287.029	0.000000
287.398	0.539199
287.766	0.610992
288.134	0.906096
288.502	0.305380
288.871	0.000000
289.239	0.000000
289.607	0.479753
289.975	0.000000
290.343	0.000000
290.711	0.000000
291.079	0.568255
291.447	0.278813
291.815	0.312695
292.183	0.560862
292.551	0.000000
292.919	0.516758
293.287	0.000000
293.655	0.000000
294.022	-0.203373
294.390	0.534301
294.758	1.167648
295.126	1.486640
295.493	0.472784
295.861	0.000000
296.229	0.650766
296.596	0.000000
296.964	0.368191
297.331	0.328962
297.699	0.000000
298.066	0.537530
298.434	0.000000
298.801	0.000000
299.168	0.900693
299.536	0.000000
299.903	0.000000
300.270	0.000000
300.638	2.094801
301.005	1.352108
301.372	0.408620
301.739	1.082886
302.106	0.983969
302.473	0.540542
302.840	0.000000
303.207	0.000000
303.574	0.000000
303.941	0.554567
304.308	0.669740
304.675	0.612647
305.042	1.260534
305.409	0.829432
305.776	1.462665
306.143	0.000000
306.509	0.000000
306.876	0.000000
307.243	0.000000
307.610	0.000000
307.976	0.000000
308.343	0.000000
308.709	0.689101
309.076	0.000000
309.442	0.951810
309.809	0.000000
310.175	0.000000
310.542	1.321415
310.908	0.000000
311.275	1.018402
311.641	0.000000
312.007	0.000000
312.373	2.268129
312.740	1.254108
313.106	1.281032
313.472	0.000000
313.838	0.000000
314.204	0.000000
314.570	2.633036
314.936	0.000000
315.302	0.000000
315.668	0.000000
316.034	0.000000
316.400	1.656128
316.766	0.000000
317.132	0.000000
317.498	0.000000
317.864	0.000000
318.230	0.000000
318.595	2.038199
318.961	2.021880
319.327	1.472719
319.692	1.920380
320.058	0.000000
320.424	2.615699
320.789	0.000000
321.155	2.101268
321.520	0.000000
321.886	1.766338
322.251	0.000000
322.616	0.000000
322.982	1.963049
323.347	2.165282
323.712	2.002396
324.078	4.108945
324.443	2.660745
324.808	0.000000
325.173	0.000000
325.539	2.022818
325.904	2.120878
326.269	2.402188
326.634	0.000000
326.999	0.000000
327.364	0.000000
327.729	0.000000
328.094	2.428914
328.459	0.000000
328.823	2.306210
329.188	0.000000
329.553	2.696401
329.918	0.000000
330.283	2.658810
330.647	2.222589
331.012	0.000000
331.377	0.000000
331.741	2.194874
332.106	3.319069
332.470	2.282441
332.835	2.159431
333.199	2.730312
333.564	0.000000
333.928	0.000000
334.293	0.000000
334.657	2.886594
335.021	0.000000
335.386	2.890151
335.750	3.476731
336.114	2.927780
336.478	0.000000
336.843	0.000000
337.207	2.249245
337.571	2.814115
337.935	2.532907
338.299	2.243903
338.663	2.765830
339.027	2.316941
339.391	2.996400
339.755	3.872218
340.119	2.776412
340.483	2.599975
340.846	0.000000
341.210	2.459107
341.574	2.875198
341.938	2.382713
342.301	2.119641
342.665	2.322550
343.029	0.000000
343.392	2.251910
343.756	2.608591
344.119	4.382916
344.483	3.227054
344.846	2.338884
345.210	2.699799
345.573	2.802417
345.937	2.988491
346.300	2.705888
346.663	3.601577
347.027	2.819119
347.390	2.416154
347.753	2.638356
348.116	0.000000
348.479	2.314707
348.843	2.483424
349.206	2.775166
349.569	0.000000
349.932	2.226874
350.295	2.613269
350.658	3.285003
351.021	2.666197
351.383	2.662490
351.746	2.783193
352.109	2.575382
352.472	2.241077
352.835	2.599070
353.197	3.003081
353.560	2.335241
353.923	2.442225
354.285	2.071135
354.648	2.758034
355.011	0.000000
355.373	2.506190
355.736	2.369869
356.098	2.513931
356.461	2.559066
356.823	2.440087
357.185	2.276706
357.548	2.594109
357.910	2.306808
358.272	2.392278
358.635	2.274537
358.997	2.578796
359.359	2.281597
359.721	2.400833
360.083	2.193072
360.445	2.311562
360.807	2.524364
361.169	2.963512
361.531	2.583334
361.893	2.317683
362.255	2.735943
362.617	2.278954
362.979	2.261422
363.341	3.096081
363.703	2.454715
364.064	2.217854
364.426	2.332202
364.788	3.422184
365.149	2.989739
365.511	2.401003
365.873	2.511914
366.234	2.432376
366.596	2.227964
366.957	2.393319
367.319	2.454259
367.680	2.786643
368.042	2.608537
368.403	2.334809
368.764	2.274328
369.126	2.304910
369.487	2.236604
369.848	3.606233
370.209	2.386194
370.570	2.662610
370.931	2.258814
371.293	2.430980
371.654	2.265276
372.015	2.631711
372.376	2.370575
372.737	3.212978
373.098	2.395009
373.458	2.202653
373.819	2.234362
374.180	2.741411
374.541	2.584051
374.902	2.759634
375.263	3.699700
375.623	2.410354
375.984	2.366404
376.345	2.386085
376.705	2.179505
377.066	2.493924
377.426	2.099532
377.787	2.964110
378.147	2.715506
378.508	2.989091
378.868	2.407045
379.228	2.949220
379.589	2.576106
379.949	2.433219
380.309	0.000000
380.670	2.240717
381.030	2.413162
381.390	2.888230
381.750	2.156195
382.110	2.389765
382.470	2.926367
382.830	2.474565
383.190	3.020243
383.550	2.522112
383.910	2.843512
384.270	2.966975
384.630	2.376958
384.990	2.304894
385.350	2.619847
385.709	2.768011
386.069	3.243637
386.429	2.284012
386.788	2.328423
387.148	0.000000
387.508	2.461459
387.867	0.000000
388.227	2.482771
388.586	2.720711
388.946	2.464655
389.305	2.482942
389.665	2.520701
390.024	2.437796
390.383	2.269327
390.743	2.402040
391.102	2.909541
391.461	2.832953
391.820	2.368570
392.179	2.381514
392.539	2.766940
392.898	2.515468
393.257	2.333365
393.616	2.502889
393.975	2.325248
394.334	2.490467
394.693	2.418595
395.051	2.601110
395.410	2.489658
395.769	2.281045
396.128	0.000000
396.487	2.480895
396.845	2.900421
397.204	2.323835
397.563	2.437913
397.921	2.579843
398.280	2.849795
398.638	2.414098
398.997	2.845385
399.355	2.732369
399.714	2.473985
400.072	2.717026
400.431	3.717835
400.789	2.133680
401.147	2.332268
401.506	2.234493
401.864	2.531978
402.222	2.759341
402.580	0.000000
402.938	2.423161
403.297	2.235006
403.655	2.728126
404.013	2.312656
404.371	2.379854
404.729	2.484669
405.087	2.519183
405.444	2.276484
405.802	2.260405
406.160	2.524755
406.518	2.313035
406.876	2.654249
407.233	2.689868
407.591	2.445200
407.949	2.426946
408.306	3.733153
408.664	2.550463
409.022	2.544868
409.379	2.643296
409.737	2.118295
410.094	2.295243
410.451	2.442174
410.809	2.926496
411.166	2.293354
411.523	2.366353
411.881	2.263699
412.238	2.261987
412.595	2.263505
412.952	2.148090
413.310	2.356924
413.667	2.165062
414.024	2.278786
414.381	2.252148
414.738	2.286188
415.095	2.750328
415.452	2.301323
415.809	2.931492
416.165	2.509221
416.522	2.299793
416.879	2.711035
417.236	1.996112
417.593	2.193025
417.949	2.119169
418.306	2.218823
418.663	2.184124
419.019	2.197198
419.376	2.532095
419.732	2.390985
420.089	2.469568
420.445	2.130305
420.802	2.398964
421.158	3.137146
421.514	2.272485
421.871	2.365043
422.227	2.178773
422.583	2.310156
422.939	2.478946
423.295	2.397406
423.652	2.423784
424.008	2.378588
424.364	2.272032
424.720	2.492547
425.076	2.175196
425.432	2.160100
425.788	2.123709
426.143	2.633037
426.499	2.197529
426.855	2.375853
427.211	2.168851
427.567	2.154436
427.922	2.266221
428.278	2.379986
428.634	2.408617
428.989	2.191219
429.345	2.209820
429.700	2.203159
430.056	2.075859
430.411	2.574864
430.767	2.091290
431.122	2.272613
431.478	2.622730
431.833	2.179050
432.188	2.204473
432.543	2.455249
432.899	2.120570
433.254	2.282820
433.609	2.230381
433.964	2.216276
434.319	2.163028
434.674	2.093255
435.029	2.325169
435.384	2.355877
435.739	2.099840
436.094	2.145030
436.449	2.386193
436.804	2.202177
437.158	1.995267
437.513	2.333369
437.868	2.325805
438.223	2.418140
438.577	2.165691
438.932	2.224923
439.287	2.073058
439.641	2.247771
439.996	2.166888
440.350	2.081107
440.704	2.246559
441.059	2.083796
441.413	2.001068
441.768	2.051390
442.122	2.032677
442.476	2.023802
442.830	2.208186
443.185	2.215270
443.539	2.133205
443.893	2.071653
444.247	2.065042
444.601	1.944680
444.955	2.080881
445.309	1.939474
445.663	1.992084
446.017	1.918927
446.371	1.993253
446.724	1.916992
447.078	2.028743
447.432	1.967964
447.786	2.048661
448.139	2.119908
448.493	1.978463
448.847	1.960570
449.200	1.976031
449.554	2.060475
449.907	1.878693
450.261	2.136346
450.614	1.958699
450.968	1.947381
451.321	1.929145
451.674	2.003979
452.027	1.923702
452.381	1.882804
452.734	1.943948
453.087	1.952235
453.440	1.894144
453.793	1.833245
454.146	1.874975
454.499	1.847651
454.852	1.842962
455.205	1.893339
455.558	1.859240
455.911	1.849921
456.264	1.914364
456.617	1.829162
456.970	1.918183
457.322	1.938330
457.675	1.992420
458.028	1.896444
458.380	1.873738
458.733	1.847936
459.086	1.805919
459.438	1.950508
459.791	1.949791
460.143	1.844817
460.496	1.852467
460.848	1.912534
461.200	1.759262
461.553	1.756277
461.905	1.770157
462.257	1.945641
462.609	1.763568
462.961	1.779606
463.314	1.819836
463.666	1.802391
464.018	1.746550
464.370	1.801569
464.722	1.745970
465.074	1.763815
465.426	1.778219
465.777	1.753972
466.129	1.732749
466.481	1.763352
466.833	1.707155
467.184	1.758399
467.536	1.737676
467.888	1.719423
468.239	1.743963
468.591	1.772411
468.943	1.734269
469.294	1.835852
469.646	1.662731
469.997	1.734548
470.348	1.787065
470.700	1.760942
471.051	1.729118
471.402	1.663819
471.754	1.794396
472.105	1.758328
472.456	1.692915
472.807	1.628635
473.158	1.695291
473.509	1.572134
473.860	1.689889
474.211	1.672747
474.562	1.664758
474.913	1.658269
475.264	1.627125
475.615	1.682107
475.966	1.637272
476.316	1.672998
476.667	1.662989
477.018	1.646355
477.368	1.652803
477.719	1.633520
478.070	1.625321
478.420	1.583869
478.771	1.660232
479.121	1.676487
479.472	1.560338
479.822	1.616685
480.172	1.610749
480.523	1.610145
480.873	1.583559
481.223	1.593959
481.573	1.610991
481.924	1.596714
482.274	1.579503
482.624	1.605892
482.974	1.585629
483.324	1.599214
483.674	1.575733
484.024	1.606049
484.374	1.587637
484.724	1.565095
485.073	1.552174
485.423	1.560945
485.773	1.532841
486.123	1.539423
486.472	1.525134
486.822	1.549503
487.172	1.529283
487.521	1.515179
487.871	1.528777
488.220	1.538134
488.570	1.529711
488.919	1.516057
489.268	1.503139
489.618	1.512381
489.967	1.517755
490.316	1.503445
490.666	1.512326
491.015	1.507449
491.364	1.519079
491.713	1.501031
492.062	1.526586
492.411	1.488837
492.760	1.488458
493.109	1.481822
493.458	1.520797
493.807	1.465156
494.156	1.476118
494.505	1.483070
494.853	1.468277
495.202	1.474541
495.551	1.459278
495.900	1.465808
496.248	1.458286
496.597	1.447784
496.945	1.478614
497.294	1.450018
497.642	1.448257
497.991	1.461291
498.339	1.454184
498.688	1.432839
499.036	1.455862
499.384	1.428826
499.732	1.433782
500.081	1.451168
500.429	1.460012
500.777	1.450907
501.125	1.425392
501.473	1.426306
501.821	1.454692
502.169	1.417503
502.517	1.392580
502.865	1.417730
503.213	1.439059
503.561	1.417050
503.908	1.402217
504.256	1.383006
504.604	1.396283
504.952	1.387044
505.299	1.413859
505.647	1.401694
505.994	1.370107
506.342	1.403619
506.689	1.366090
507.037	1.384398
507.384	1.375708
507.732	1.384668
508.079	1.358033
508.426	1.361213
508.774	1.357201
509.121	1.380877
509.468	1.356349
509.815	1.362324
510.162	1.369765
510.509	1.367045
510.856	1.368864
511.203	1.341319
511.550	1.353860
511.897	1.367320
512.244	1.367757
512.591	1.330483
512.938	1.333128
513.284	1.322935
513.631	1.358960
513.978	1.326397
514.324	1.353357
514.671	1.339807
515.018	1.337796
515.364	1.332222
515.711	1.307253
516.057	1.332016
516.403	1.325174
516.750	1.313977
517.096	1.319203
517.443	1.297017
517.789	1.313257
518.135	1.302250
518.481	1.319289
518.827	1.304178
519.173	1.291093
519.519	1.289594
519.865	1.282818
520.211	1.274223
520.557	1.264439
520.903	1.305099
521.249	1.306959
521.595	1.327254
521.941	1.289322
522.287	1.303925
522.632	1.277441
522.978	1.294703
523.324	1.256217
523.669	1.280085
524.015	1.269851
524.360	1.261316
524.706	1.245948
525.051	1.250163
525.397	1.273669
525.742	1.270248
526.087	1.242306
526.433	1.283914
526.778	1.261921
527.123	1.259853
527.468	1.259496
527.813	1.230029
528.158	1.262774
528.504	1.260267
528.849	1.224172
529.193	1.242621
529.538	1.252037
529.883	1.241557
530.228	1.237132
530.573	1.226772
530.918	1.230068
531.263	1.235557
531.607	1.204235
531.952	1.221684
532.296	1.223704
532.641	1.242770
532.986	1.188348
533.330	1.195284
533.675	1.194896
534.019	1.193522
534.363	1.203119
534.708	1.192797
535.052	1.189662
535.396	1.194997
535.741	1.182248
536.085	1.194752
536.429	1.177075
536.773	1.193859
537.117	1.178859
537.461	1.195462
537.805	1.153275
538.149	1.166642
538.493	1.153371
538.837	1.171570
539.181	1.183866
539.524	1.167460
539.868	1.143793
540.212	1.160260
540.556	1.153232
540.899	1.166169
541.243	1.140876
541.586	1.146020
541.930	1.150943
542.273	1.148309
542.617	1.141750
542.960	1.136440
543.304	1.131096
543.647	1.129812
543.990	1.118611
544.333	1.125109
544.677	1.115030
545.020	1.134383
545.363	1.127718
545.706	1.126306
546.049	1.107377
546.392	1.101884
546.735	1.090028
547.078	1.107768
547.421	1.093054
547.764	1.091152
548.106	1.070918
548.449	1.074795
548.792	1.077348
549.135	1.065063
549.477	1.070678
549.820	1.073417
550.162	1.067267
550.505	1.066638
550.847	1.066831
551.190	1.057276
551.532	1.053935
551.875	1.031758
552.217	1.038955
552.559	1.021452
552.901	1.030638
553.244	1.034305
553.586	1.038044
553.928	1.025716
554.270	1.022251
554.612	1.014093
554.954	1.005873
555.296	1.009141
555.638	0.999411
555.980	1.012704
556.322	0.982179
556.663	0.992968
557.005	1.002938
557.347	0.988554
557.689	0.972416
558.030	0.980130
558.372	0.974446
558.713	0.966826
559.055	0.985467
559.396	0.961254
559.738	0.958213
560.079	0.955404
560.421	0.955715
560.762	0.949956
561.103	0.939238
561.444	0.926992
561.786	0.933867
562.127	0.932307
562.468	0.933254
562.809	0.928869
563.150	0.918634
563.491	0.913806
563.832	0.909541
564.173	0.897822
564.514	0.885385
564.855	0.892094
565.195	0.894475
565.536	0.888541
565.877	0.887901
566.218	0.888234
566.558	0.880470
566.899	0.872242
567.239	0.881024
567.580	0.875894
567.920	0.869415
568.261	0.854413
568.601	0.860132
568.941	0.859434
569.282	0.854515
569.622	0.848673
569.962	0.845960
570.302	0.838452
570.643	0.837981
570.983	0.828243
571.323	0.823313
571.663	0.825964
572.003	0.816099
572.343	0.816659
572.683	0.806334
573.022	0.795466
573.362	0.779200
573.702	0.753194
574.042	0.729789
574.381	0.714861
574.721	0.713126
575.061	0.708193
575.400	0.707885
575.740	0.707128
576.079	0.704653
576.419	0.690101
576.758	0.662755
577.097	0.634707
577.437	0.616015
577.776	0.607862
578.115	0.606606
578.454	0.602749
578.794	0.613002
579.133	0.628343
579.472	0.639231
579.811	0.639357
580.150	0.615615
580.489	0.576156
580.828	0.543738
581.167	0.519281
581.505	0.502568
581.844	0.496705
582.183	0.504435
582.522	0.539286
582.860	0.582385
583.199	0.624178
583.538	0.655111
583.876	0.664713
584.215	0.654016
584.553	0.634371
584.891	0.614596
585.230	0.607079
585.568	0.606319
585.906	0.612076
586.245	0.623671
586.583	0.634741
586.921	0.643674
587.259	0.647109
587.597	0.645923
587.935	0.653551
588.273	0.669493
588.611	0.688801
588.949	0.701161
589.287	0.702805
589.625	0.702369
589.963	0.700763
590.300	0.701577
590.638	0.700368
590.976	0.700181
591.313	0.696281
591.651	0.695499
591.989	0.694560
592.326	0.689527
592.664	0.685111
593.001	0.683221
593.338	0.682029
593.676	0.678214
594.013	0.678975
594.350	0.680500
594.687	0.676728
595.025	0.674139
595.362	0.679054
595.699	0.674074
596.036	0.674085
596.373	0.673290
596.710	0.675147
597.047	0.677014
597.384	0.667849
597.720	0.671061
598.057	0.669377
598.394	0.668592
598.731	0.668020
599.067	0.665727
599.404	0.663106
599.741	0.664630
600.077	0.658620
600.414	0.659999
600.750	0.659296
601.087	0.658488
601.423	0.658092
601.759	0.652792
602.096	0.650686
602.432	0.650804
602.768	0.651888
603.104	0.647131
603.440	0.648572
603.776	0.650064
604.112	0.648744
604.448	0.652229
604.784	0.645311
605.120	0.646162
605.456	0.644646
605.792	0.644344
606.128	0.643212
606.463	0.641533
606.799	0.638332
607.135	0.639723
607.470	0.640195
607.806	0.632429
608.142	0.631639
608.477	0.638223
608.812	0.638642
609.148	0.636581
609.483	0.634705
609.819	0.632577
610.154	0.633045
610.489	0.630484
610.824	0.631255
611.159	0.629320
611.494	0.628924
611.830	0.626102
612.165	0.627562
612.500	0.624327
612.834	0.626038
613.169	0.626920
613.504	0.621703
613.839	0.628615
614.174	0.623499
614.509	0.625225
614.843	0.621717
615.178	0.623130
615.512	0.621757
615.847	0.614366
616.182	0.617910
616.516	0.616844
616.850	0.613518
617.185	0.615878
617.519	0.614200
617.853	0.611628
618.188	0.613787
618.522	0.611658
618.856	0.614034
619.190	0.607954
619.524	0.611155
619.858	0.605466
620.192	0.610097
620.526	0.611909
620.860	0.609695
621.194	0.603537
621.528	0.597468
621.862	0.604734
622.195	0.598464
622.529	0.603219
622.863	0.604800
623.196	0.602349
623.530	0.600056
623.864	0.594229
624.197	0.597468
624.530	0.596386
624.864	0.594920
625.197	0.595835
625.531	0.595148
625.864	0.595342
626.197	0.592904
626.530	0.595626
626.863	0.593199
627.196	0.595611
627.529	0.592164
627.862	0.592948
628.195	0.587299
628.528	0.596711
628.861	0.591758
629.194	0.598085
629.527	0.590723
629.860	0.584830
630.192	0.595208
630.525	0.584623
630.858	0.591228
631.190	0.585904
631.523	0.589795
631.855	0.573345
632.188	0.580216
632.520	0.585439
632.852	0.577418
633.185	0.578750
633.517	0.574384
633.849	0.585019
634.182	0.581630
634.514	0.588667
634.846	0.579363
635.178	0.573651
635.510	0.578377
635.842	0.575259
636.174	0.574805
636.506	0.571324
636.837	0.582441
637.169	0.571367
637.501	0.564374
637.833	0.577935
638.164	0.587808
638.496	0.572472
638.828	0.567921
639.159	0.565147
639.491	0.569282
639.822	0.578415
640.154	0.562031
640.485	0.587509
640.816	0.563680
641.147	0.557600
641.479	0.566253
641.810	0.575624
642.141	0.560949
642.472	0.579978
642.803	0.579692
643.134	0.571135
643.465	0.568631
643.796	0.571252
644.127	0.551654
644.458	0.552909
644.789	0.572642
645.119	0.566903
645.450	0.565780
645.781	0.552749
646.111	0.569036
646.442	0.547406
646.773	0.563444
647.103	0.551495
647.433	0.572199
647.764	0.557052
648.094	0.553714
648.425	0.551481
648.755	0.557978
649.085	0.560390
649.415	0.555090
649.745	0.546948
650.075	0.550183
650.405	0.563906
650.735	0.545315
651.065	0.547805
651.395	0.553319
651.725	0.548911
652.055	0.539277
652.385	0.554911
652.715	0.548740
653.044	0.553055
653.374	0.533260
653.704	0.551903
654.033	0.558426
654.363	0.565492
654.692	0.401406
655.022	0.130226
655.351	0.002328
655.680	-0.000000
656.010	-0.000000
656.339	-0.000000
656.668	-0.000000
656.997	-0.000000
657.326	0.116250
657.655	0.280430
657.984	0.452814
658.313	0.555609
658.642	0.547982
658.971	0.546701
659.300	0.539627
659.629	0.528725
659.958	0.539377
660.286	0.556049
660.615	0.550864
660.944	0.524478
661.272	0.544770
661.601	0.548314
661.929	0.527330
662.258	0.524436
662.586	0.532183
662.915	0.534166
663.243	0.521427
663.571	0.529703
663.899	0.540919
664.228	0.512787
664.556	0.539646
664.884	0.521791
665.212	0.519219
665.540	0.533405
665.868	0.526608
666.196	0.544981
666.524	0.538255
666.852	0.530621
667.179	0.505998
667.507	0.511978
667.835	0.516861
668.162	0.521714
668.490	0.523929
668.818	0.520921
669.145	0.528407
669.473	0.540827
669.800	0.525434
670.127	0.533632
670.455	0.523235
670.782	0.527652
671.109	0.531919
671.436	0.524604
671.764	0.524270
672.091	0.512647
672.418	0.525164
672.745	0.525447
673.072	0.514998
673.399	0.506237
673.726	0.522903
674.053	0.532968
674.379	0.521673
674.706	0.520444
675.033	0.521407
675.359	0.522662
675.686	0.519392
676.013	0.522184
676.339	0.524794
676.666	0.527345
676.992	0.516400
677.318	0.512857
677.645	0.492569
677.971	0.506841
678.297	0.509889
678.624	0.513512
678.950	0.516902
679.276	0.513933
679.602	0.511883
679.928	0.517849
680.254	0.511008
680.580	0.501224
680.906	0.503394
681.232	0.503501
681.558	0.500113
681.883	0.502488
682.209	0.505044
682.535	0.497185
682.860	0.517424
683.186	0.504912
683.511	0.507922
683.837	0.514694
684.162	0.509234
684.488	0.500300
684.813	0.494186
685.138	0.511041
685.464	0.488963
685.789	0.497794
686.114	0.505663
686.439	0.494753
686.764	0.496512
687.089	0.494656
687.414	0.497892
687.739	0.499446
688.064	0.490802
688.389	0.498594
688.714	0.484778
689.039	0.487725
689.363	0.503326
689.688	0.502943
690.013	0.490053
690.337	0.512235
690.662	0.489317
690.986	0.484923
691.311	0.484542
691.635	0.492135
691.959	0.484961
692.284	0.497623
692.608	0.483590
692.932	0.496585
693.256	0.488263
693.580	0.490368
693.904	0.496109
694.228	0.481861
694.552	0.490153
694.876	0.485550
695.200	0.479162
695.524	0.482000
695.848	0.491294
696.172	0.486403
696.495	0.491278
696.819	0.477476
697.143	0.503290
697.466	0.481703
697.790	0.480439
698.113	0.477094
698.437	0.488431
698.760	0.489602
699.083	0.484024
699.407	0.478593
699.730	0.471642
700.053	0.485221
700.376	0.482455
700.699	0.495071
701.022	0.482139
701.345	0.480256
701.668	0.473523
701.991	0.488253
702.314	0.494019
702.637	0.489697
702.960	0.476811
703.283	0.478583
703.605	0.488194
703.928	0.475842
704.251	0.484396
704.573	0.479368
704.896	0.466053
705.218	0.469617
705.540	0.474803
705.863	0.465988
706.185	0.464880
706.507	0.472572
706.830	0.477041
707.152	0.478239
707.474	0.476655
707.796	0.468428
708.118	0.463923
708.440	0.458043
708.762	0.468782
709.084	0.476442
709.406	0.474120
709.728	0.475935
710.049	0.455428
710.371	0.457624
710.693	0.488619
711.014	0.475273
711.336	0.470199
711.658	0.470984
711.979	0.461570
712.301	0.468817
712.622	0.464078
712.943	0.467498
713.265	0.458681
713.586	0.464289
713.907	0.464135
714.228	0.468027
714.549	0.453211
714.870	0.463152
715.191	0.454525
715.512	0.473869
715.833	0.463930
716.154	0.479660
716.475	0.464699
716.796	0.460911
717.117	0.463144
717.437	0.457994
717.758	0.477510
718.078	0.476919
718.399	0.440738
718.719	0.456953
719.040	0.473458
719.360	0.475996
719.681	0.457057
720.001	0.447246
720.321	0.457452
720.642	0.448074
720.962	0.453126
721.282	0.457332
721.602	0.443257
721.922	0.463854
722.242	0.458374
722.562	0.459110
722.882	0.447778
723.202	0.446307
723.521	0.457265
723.841	0.443754
724.161	0.438931
724.481	0.459778
724.800	0.459007
725.120	0.458230
725.439	0.445328
725.759	0.457351
726.078	0.454856
726.398	0.447713
726.717	0.448438
727.036	0.459776
727.355	0.472636
727.675	0.445315
727.994	0.431285
728.313	0.448578
728.632	0.445246
728.951	0.451580
729.270	0.464362
729.589	0.441321
729.908	0.456937
730.226	0.433628
730.545	0.449516
730.864	0.436033
731.182	0.441907
731.501	0.443409
731.820	0.462402
732.138	0.450619
732.457	0.446035
732.775	0.445282
733.093	0.444857
733.412	0.435011
733.730	0.450257
734.048	0.435706
734.367	0.450995
734.685	0.441517
735.003	0.434485
735.321	0.436207
735.639	0.446294
735.957	0.445307
736.275	0.453922
736.593	0.440405
736.910	0.453333
737.228	0.445820
737.546	0.453643
737.863	0.429019
738.181	0.429911
738.499	0.436912
738.816	0.446032
739.134	0.448702
739.451	0.433852
739.768	0.435831
740.086	0.448503
740.403	0.432044
740.720	0.446183
741.038	0.456324
741.355	0.438516
741.672	0.435637
741.989	0.434710
742.306	0.437784
742.623	0.437301
742.940	0.425209
743.257	0.426890
743.573	0.439590
743.890	0.441819
744.207	0.426262
744.523	0.425420
744.840	0.442802
745.157	0.445100
745.473	0.441446
745.790	0.420549
746.106	0.420791
746.422	0.454097
746.739	0.440903
747.055	0.424594
747.371	0.450339
747.687	0.447519
748.004	0.429242
748.320	0.447190
748.636	0.443120
748.952	0.441579
749.268	0.416680
749.584	0.441871
749.899	0.429239
750.215	0.423122
750.531	0.428985
750.847	0.439832
751.162	0.433914
751.478	0.429632
751.793	0.432435
752.109	0.427921
752.424	0.422747
752.740	0.420549
753.055	0.430137
753.370	0.431943
753.686	0.428850
754.001	0.442739
754.316	0.427574
754.631	0.425462
754.946	0.419642
755.261	0.423168
755.576	0.413943
755.891	0.424373
756.206	0.434210
756.521	0.409746
756.836	0.427097
757.150	0.420958
757.465	0.418971
757.780	0.423723
758.094	0.427113
758.409	0.433096
758.723	0.420770
759.038	0.425583
759.352	0.428627
759.667	0.427113
759.981	0.424061
760.295	0.418068
760.609	0.428644
760.923	0.412695
761.238	0.413409
761.552	0.422620
761.866	0.415794
762.180	0.411559
762.493	0.421918
762.807	0.417968
763.121	0.416812
763.435	0.417301
763.749	0.421425
764.062	0.420654
764.376	0.420176
764.689	0.423276
765.003	0.412047
765.316	0.423848
765.630	0.423841
765.943	0.411466
766.257	0.417363
766.570	0.415154
766.883	0.411704
767.196	0.408495
767.509	0.414752
767.822	0.415843
768.135	0.422257
768.448	0.418640
768.761	0.419114
769.074	0.414965
769.387	0.405910
769.700	0.410141
770.013	0.407126
770.325	0.411070
770.638	0.402859
770.950	0.405979
771.263	0.409199
771.575	0.411276
771.888	0.403026
772.200	0.415736
772.513	0.404026
772.825	0.409447
773.137	0.397905
773.449	0.401617
773.761	0.418119
774.074	0.395705
774.386	0.396842
774.698	0.401734
775.010	0.390386
775.321	0.401425
775.633	0.404904
775.945	0.412306
776.257	0.392499
776.568	0.404340
776.880	0.422540
777.192	0.411311
777.503	0.391000
777.815	0.406423
778.126	0.409759
778.438	0.387711
778.749	0.406601
779.060	0.404478
779.372	0.399428
779.683	0.393052
779.994	0.413984
780.305	0.398260
780.616	0.413838
780.927	0.409907
781.238	0.407378
781.549	0.397516
781.860	0.396666
782.171	0.395038
782.481	0.396524
782.792	0.388510
783.103	0.402524
783.413	0.400323
783.724	0.397732
784.034	0.413718
784.345	0.400093
784.655	0.395446
784.966	0.400551
785.276	0.396513
785.586	0.394317
785.896	0.400992
786.207	0.401556
786.517	0.405284
786.827	0.393062
787.137	0.395164
787.447	0.394403
787.757	0.407349
788.066	0.412713
788.376	0.407324
788.686	0.390519
788.996	0.388028
789.305	0.405042
789.615	0.386057
789.925	0.402448
790.234	0.404294
790.544	0.395221
790.853	0.399090
791.162	0.417984
791.472	0.390192
791.781	0.378475
792.090	0.393874
792.399	0.383297
792.708	0.400042
793.017	0.380642
793.326	0.404920
793.635	0.396111
793.944	0.398301
794.253	0.400339
794.562	0.408819
794.871	0.379807
795.179	0.387118
795.488	0.417186
795.797	0.399623
796.105	0.395674
796.414	0.387207
796.722	0.413297
797.031	0.381086
797.339	0.388678
797.647	0.374704
797.956	0.371548
798.264	0.393843
798.572	0.394288
798.880	0.398692
799.188	0.409820
799.496	0.389094
799.804	0.403930
800.112	0.375810
800.420	0.398425
800.728	0.399204
801.035	0.399329
801.343	0.373037
801.651	0.373199
801.958	0.373810
802.266	0.400222
802.573	0.361926
802.881	0.381910
803.188	0.406672
803.496	0.389559
803.803	0.389744
804.110	0.383857
804.417	0.382584
804.724	0.394342
805.032	0.372492
805.339	0.370696
805.646	0.403256
805.953	0.391494
806.259	0.406050
806.566	0.388863
806.873	0.378414
807.180	0.390906
807.486	0.381903
807.793	0.376335
808.100	0.364310
808.406	0.374849
808.713	0.363384
809.019	0.388675
809.326	0.415545
809.632	0.395186
809.938	0.374849
810.244	0.350274
810.551	0.391599
810.857	0.393409
811.163	0.383524
811.469	0.412654
811.775	0.339253
812.081	0.397547
812.387	0.389690
812.692	0.384715
812.998	0.390818
813.304	0.373658
813.610	0.355781
813.915	0.371962
814.221	0.373607
814.526	0.385118
814.832	0.360091
815.137	0.362406
815.443	0.457791
815.748	0.359726
816.053	0.398237
816.358	0.337572
816.664	0.392723
816.969	0.376611
817.274	0.376627
817.579	0.376838
817.884	0.377812
818.189	0.382159
818.493	0.376242
818.798	0.405867
819.103	0.367829
819.408	0.382305
819.712	0.373907
820.017	0.399389
820.321	0.400695
820.626	0.396849
820.930	0.385184
821.235	0.390062
821.539	0.398144
821.843	0.368301
822.148	0.378217
822.452	0.425819
822.756	0.364053
823.060	0.343185
823.364	0.381837
823.668	0.348780
823.972	0.381831
824.276	0.360568
824.580	0.384985
824.883	0.356853
825.187	0.410389
825.491	0.402537
825.795	0.358487
826.098	0.403307
826.402	0.405697
826.705	0.347603
827.008	0.359453
827.312	0.363567
827.615	0.392922
827.918	0.404263
828.222	0.358410
828.525	0.384020
828.828	0.368138
829.131	0.370296
829.434	0.370502
829.737	0.350035
830.040	0.385962
830.343	0.431583
830.645	0.369421
830.948	0.325298
831.251	0.450109
831.553	0.405638
831.856	0.416195
832.159	0.373309
832.461	0.403614
832.764	0.339580
833.066	0.356931
833.368	0.342492
833.671	0.321237
833.973	0.359446
834.275	0.382918
834.577	0.334355
834.879	0.343437
835.181	0.381760
835.483	0.335479
835.785	0.408290
836.087	0.401853
836.389	0.304312
836.690	0.367112
836.992	0.368691
837.294	0.357600
837.595	0.385368
837.897	0.367927
838.198	0.427912
838.500	0.404057
838.801	0.350881
839.103	0.340045
839.404	0.364009
839.705	0.391168
840.006	0.369416
840.307	0.401534
840.608	0.365918
840.910	0.200261
841.210	0.331031
841.511	0.320091
841.812	0.209380
842.113	0.303513
842.414	0.314788
842.715	0.313559
843.015	0.454048
843.316	0.233143
843.616	0.416543
843.917	0.373421
844.217	0.346087
844.518	0.382777
844.818	0.345777
845.118	0.383828
845.419	0.419696
845.719	0.355216
846.019	0.395461
846.319	0.303145
846.619	0.370602
846.919	0.386300
847.219	0.311803
847.519	0.269753
847.819	0.367746
848.118	0.358427
848.418	0.323276
848.718	0.268449
849.017	0.351325
849.317	0.380461
849.616	0.370049
849.916	0.327067
850.215	0.363659
850.515	0.429652
850.814	0.388998
851.113	0.301287
851.412	0.347344
851.712	0.355971
852.011	0.294992
852.310	0.412059
852.609	0.368767
852.908	0.292343
853.206	0.337638
853.505	0.327406
853.804	0.325533
854.103	0.344316
854.401	0.376145
854.700	0.356124
854.999	0.384705
855.297	0.346877
855.595	0.333417
855.894	0.328244
856.192	0.376353
856.491	0.357165
856.789	0.348566
857.087	0.329519
857.385	0.426295
857.683	0.341469
857.981	0.397724
858.279	0.306736
858.577	0.332848
858.875	0.295372
859.173	0.345733
859.471	0.379060
859.768	0.425157
860.066	0.416905
860.363	0.371289
860.661	0.313858
860.959	0.294293
861.256	0.195205
861.553	0.303965
861.851	0.231575
862.148	0.330457
862.445	0.328522
862.742	0.335750
863.039	0.361978
863.337	0.355767
863.634	0.244509
863.931	0.303135
864.227	0.384046
864.524	0.348463
864.821	0.317668
865.118	0.385456
865.415	0.303531
865.711	0.167621
866.008	0.346790
866.304	0.319730
866.601	0.308351
866.897	0.378421
867.194	0.365900
867.490	0.264809
867.786	0.441852
868.082	0.396617
868.379	0.666443
868.675	0.498304
868.971	0.339226
869.267	0.380782
869.563	0.241670
869.859	0.430995
870.154	0.271362
870.450	0.321429
870.746	0.388086
871.042	0.356933
871.337	0.269306
871.633	0.345695
871.928	0.325565
872.224	0.374151
872.519	0.248481
872.815	0.285166
873.110	0.491804
873.405	0.366094
873.700	0.245120
873.995	0.316468
874.291	0.343600
874.586	0.411972
874.881	0.307310
875.175	0.394929
875.470	0.240064
875.765	0.386922
876.060	0.303010
876.355	0.400667
876.649	0.317894
876.944	0.238958
877.238	0.366863
877.533	0.332171
877.827	0.333771
878.122	0.356576
878.416	0.251014
878.710	0.329220
879.005	0.355281
879.299	0.328929
879.593	0.355226
879.887	0.376226
880.181	0.285885
880.475	0.373749
880.769	0.341097
881.063	0.434060
881.356	0.357291
881.650	0.476521
881.944	0.508847
882.238	0.290990
882.531	0.271569
882.825	0.345265
883.118	0.288416
883.412	0.258997
883.705	0.262165
883.998	0.380980
884.291	0.228242
884.585	0.308885
884.878	0.358742
>>>>>>>>>> END of Data <<<<<<<<<<
