Date	2021年06月15日火曜日 05時16分28秒
Spectrometers	USB2+H05879
ダーク	使用
リファレンス	使用
積分時間[msec]	10
平均回数	280
ｽﾑｰｼﾞﾝｸﾞ	10
Electrical Dark	USE
ピクセル数	2048
計測モード	吸光度
保存開始波長[nm]	190.664
保存終了波長[nm]	884.878
保存ﾋﾟｯﾁ波長[nm]	全波長

>>>>>>>>>> Data Start <<<<<<<<<<<<
190.664	0.000000
191.040	0.000000
191.415	0.000000
191.791	-2.357058
192.166	-0.389441
192.542	-0.958520
192.917	0.000000
193.293	-0.340622
193.668	-0.191404
194.044	-1.020805
194.419	0.000000
194.794	-1.315484
195.170	-1.230860
195.545	-1.149008
195.920	-1.014340
196.296	-0.901069
196.671	-0.732451
197.046	-0.581884
197.421	-0.530971
197.796	-0.522065
198.171	-0.489775
198.546	-0.435698
198.922	-0.380727
199.297	-0.355286
199.672	-0.331268
200.047	-0.311638
200.422	-0.287642
200.796	-0.285078
201.171	-0.273836
201.546	-0.267213
201.921	-0.252378
202.296	-0.243171
202.671	-0.212369
203.045	-0.182536
203.420	-0.166282
203.795	-0.157815
204.170	-0.149268
204.544	-0.135080
204.919	-0.138087
205.294	-0.129908
205.668	-0.118083
206.043	-0.100752
206.417	-0.096752
206.792	-0.088552
207.166	-0.073396
207.541	-0.065896
207.915	-0.059063
208.289	-0.037411
208.664	-0.026936
209.038	-0.013992
209.412	-0.001102
209.787	0.009948
210.161	0.025476
210.535	0.005246
210.909	0.009290
211.284	0.017438
211.658	0.020806
212.032	0.021192
212.406	-0.000739
212.780	0.008696
213.154	0.007148
213.528	0.004635
213.902	0.015541
214.276	0.014519
214.650	0.011238
215.024	-0.004746
215.398	-0.001439
215.772	0.012185
216.145	0.008905
216.519	0.009761
216.893	0.010009
217.267	0.008827
217.640	-0.000760
218.014	0.005714
218.388	0.023450
218.761	0.005947
219.135	0.013347
219.508	0.008542
219.882	-0.001811
220.256	0.011818
220.629	0.020139
221.003	0.019055
221.376	0.018664
221.749	0.004860
222.123	0.003132
222.496	-0.005998
222.869	0.003880
223.243	0.009073
223.616	0.005303
223.989	-0.005435
224.362	-0.003259
224.736	-0.007259
225.109	-0.009421
225.482	-0.002853
225.855	-0.003330
226.228	-0.011788
226.601	0.001209
226.974	0.008482
227.347	0.015514
227.720	0.019593
228.093	0.014446
228.466	0.003780
228.839	0.005193
229.212	0.003002
229.585	-0.007510
229.957	0.003751
230.330	0.007675
230.703	0.012614
231.076	0.011080
231.448	0.006366
231.821	0.019697
232.194	0.024575
232.566	0.024983
232.939	0.028456
233.311	0.020541
233.684	0.023358
234.056	0.022940
234.429	0.019539
234.801	0.010226
235.174	0.012729
235.546	0.018649
235.918	0.015454
236.291	0.017767
236.663	0.018171
237.035	0.021059
237.408	0.037486
237.780	0.043708
238.152	0.046628
238.524	0.037530
238.896	0.033537
239.268	0.032139
239.641	0.026337
240.013	0.030182
240.385	0.042251
240.757	0.048352
241.129	0.053729
241.500	0.054950
241.872	0.063403
242.244	0.066605
242.616	0.068019
242.988	0.073196
243.360	0.075810
243.731	0.091629
244.103	0.096967
244.475	0.102430
244.847	0.105509
245.218	0.107388
245.590	0.100902
245.961	0.105780
246.333	0.109649
246.705	0.111518
247.076	0.120667
247.448	0.119799
247.819	0.122848
248.190	0.129782
248.562	0.123649
248.933	0.121120
249.305	0.126882
249.676	0.130311
250.047	0.122706
250.418	0.122936
250.790	0.120609
251.161	0.118219
251.532	0.106323
251.903	0.102196
252.274	0.103205
252.645	0.109464
253.016	0.105480
253.387	0.101215
253.758	0.100836
254.129	0.103672
254.500	0.104503
254.871	0.100822
255.242	0.098535
255.613	0.091594
255.984	0.081088
256.355	0.084985
256.725	0.098032
257.096	0.091470
257.467	0.091461
257.838	0.102590
258.208	0.105005
258.579	0.104372
258.949	0.111002
259.320	0.111841
259.690	0.112602
260.061	0.112541
260.431	0.113305
260.802	0.121253
261.172	0.125125
261.543	0.125505
261.913	0.125796
262.283	0.131198
262.654	0.125784
263.024	0.131899
263.394	0.133936
263.764	0.135580
264.135	0.135250
264.505	0.132474
264.875	0.132323
265.245	0.125877
265.615	0.130650
265.985	0.128117
266.355	0.127161
266.725	0.117011
267.095	0.119876
267.465	0.121497
267.835	0.120476
268.205	0.113938
268.575	0.122437
268.944	0.125677
269.314	0.125157
269.684	0.127581
270.054	0.111181
270.423	0.117870
270.793	0.119041
271.163	0.126598
271.532	0.129440
271.902	0.135066
272.271	0.140403
272.641	0.143123
273.010	0.141475
273.380	0.127715
273.749	0.138793
274.119	0.142715
274.488	0.157328
274.857	0.160968
275.227	0.157572
275.596	0.157936
275.965	0.160665
276.335	0.148957
276.704	0.144194
277.073	0.145185
277.442	0.150505
277.811	0.169967
278.180	0.177912
278.549	0.184070
278.918	0.171643
279.287	0.170508
279.656	0.173221
280.025	0.168984
280.394	0.169105
280.763	0.176528
281.132	0.185549
281.501	0.179243
281.869	0.183076
282.238	0.180965
282.607	0.183617
282.976	0.191034
283.344	0.201415
283.713	0.202554
284.081	0.202091
284.450	0.206099
284.819	0.210762
285.187	0.207250
285.556	0.200743
285.924	0.195267
286.292	0.188923
286.661	0.197825
287.029	0.195832
287.398	0.184513
287.766	0.172191
288.134	0.171316
288.502	0.168376
288.871	0.166487
289.239	0.169217
289.607	0.168268
289.975	0.169292
290.343	0.173409
290.711	0.176563
291.079	0.169132
291.447	0.175045
291.815	0.179866
292.183	0.177778
292.551	0.177939
292.919	0.176438
293.287	0.178832
293.655	0.177313
294.022	0.178387
294.390	0.183303
294.758	0.191423
295.126	0.191548
295.493	0.200432
295.861	0.202544
296.229	0.206159
296.596	0.206390
296.964	0.209316
297.331	0.209262
297.699	0.212961
298.066	0.214146
298.434	0.211962
298.801	0.215940
299.168	0.214881
299.536	0.215436
299.903	0.216225
300.270	0.213033
300.638	0.226314
301.005	0.236576
301.372	0.249514
301.739	0.250348
302.106	0.252331
302.473	0.255615
302.840	0.269180
303.207	0.296839
303.574	0.313381
303.941	0.327467
304.308	0.346682
304.675	0.357460
305.042	0.376275
305.409	0.405798
305.776	0.417873
306.143	0.437988
306.509	0.454482
306.876	0.480362
307.243	0.508621
307.610	0.539836
307.976	0.564687
308.343	0.587751
308.709	0.608576
309.076	0.637566
309.442	0.664515
309.809	0.693426
310.175	0.728282
310.542	0.756326
310.908	0.771897
311.275	0.797300
311.641	0.819067
312.007	0.845204
312.373	0.876585
312.740	0.905689
313.106	0.922617
313.472	0.955958
313.838	0.985782
314.204	1.018411
314.570	1.033094
314.936	1.058525
315.302	1.080801
315.668	1.106485
316.034	1.136943
316.400	1.171352
316.766	1.192203
317.132	1.229509
317.498	1.253988
317.864	1.270802
318.230	1.292853
318.595	1.315460
318.961	1.335864
319.327	1.362619
319.692	1.384383
320.058	1.393600
320.424	1.408295
320.789	1.420012
321.155	1.436402
321.520	1.452231
321.886	1.469548
322.251	1.492068
322.616	1.502515
322.982	1.511750
323.347	1.520669
323.712	1.534379
324.078	1.539971
324.443	1.542501
324.808	1.544720
325.173	1.559313
325.539	1.568090
325.904	1.574678
326.269	1.584286
326.634	1.592363
326.999	1.598911
327.364	1.601528
327.729	1.610812
328.094	1.617438
328.459	1.627268
328.823	1.628902
329.188	1.638287
329.553	1.638894
329.918	1.644936
330.283	1.649331
330.647	1.659839
331.012	1.666886
331.377	1.665748
331.741	1.664660
332.106	1.673068
332.470	1.677112
332.835	1.676726
333.199	1.682003
333.564	1.686136
333.928	1.687850
334.293	1.688542
334.657	1.688984
335.021	1.691315
335.386	1.690875
335.750	1.688588
336.114	1.687426
336.478	1.690954
336.843	1.689802
337.207	1.692233
337.571	1.694763
337.935	1.696032
338.299	1.693445
338.663	1.694844
339.027	1.696950
339.391	1.699114
339.755	1.698903
340.119	1.699305
340.483	1.697268
340.846	1.696953
341.210	1.697241
341.574	1.699214
341.938	1.701475
342.301	1.702399
342.665	1.703534
343.029	1.706741
343.392	1.710995
343.756	1.712002
344.119	1.711862
344.483	1.712612
344.846	1.712959
345.210	1.713306
345.573	1.713828
345.937	1.714927
346.300	1.714799
346.663	1.715985
347.027	1.719133
347.390	1.720778
347.753	1.720528
348.116	1.723272
348.479	1.723862
348.843	1.723753
349.206	1.722589
349.569	1.720843
349.932	1.721269
350.295	1.721897
350.658	1.721716
351.021	1.723387
351.383	1.725276
351.746	1.726644
352.109	1.726959
352.472	1.728389
352.835	1.728096
353.197	1.728687
353.560	1.731081
353.923	1.730001
354.285	1.728996
354.648	1.727961
355.011	1.727826
355.373	1.730129
355.736	1.731894
356.098	1.732407
356.461	1.733063
356.823	1.732981
357.185	1.734790
357.548	1.735795
357.910	1.735910
358.272	1.734930
358.635	1.732126
358.997	1.730424
359.359	1.731511
359.721	1.731705
360.083	1.732046
360.445	1.732613
360.807	1.734045
361.169	1.732367
361.531	1.734365
361.893	1.734999
362.255	1.738111
362.617	1.739621
362.979	1.739589
363.341	1.737326
363.703	1.738241
364.064	1.739363
364.426	1.741205
364.788	1.741248
365.149	1.742123
365.511	1.743094
365.873	1.745152
366.234	1.747756
366.596	1.749374
366.957	1.749556
367.319	1.750236
367.680	1.749683
368.042	1.748387
368.403	1.747734
368.764	1.750060
369.126	1.749352
369.487	1.750881
369.848	1.749327
370.209	1.749526
370.570	1.749518
370.931	1.751156
371.293	1.751646
371.654	1.752125
372.015	1.753473
372.376	1.754584
372.737	1.755285
373.098	1.755371
373.458	1.755178
373.819	1.756102
374.180	1.758115
374.541	1.757909
374.902	1.759621
375.263	1.761573
375.623	1.763300
375.984	1.766451
376.345	1.766929
376.705	1.768696
377.066	1.770763
377.426	1.770377
377.787	1.769134
378.147	1.769721
378.508	1.769987
378.868	1.769901
379.228	1.770665
379.589	1.769278
379.949	1.768915
380.309	1.769892
380.670	1.771278
381.030	1.772330
381.390	1.772866
381.750	1.771821
382.110	1.772700
382.470	1.772905
382.830	1.772592
383.190	1.774133
383.550	1.773219
383.910	1.773498
384.270	1.774970
384.630	1.775504
384.990	1.777906
385.350	1.779986
385.709	1.781111
386.069	1.783002
386.429	1.783039
386.788	1.784519
387.148	1.786056
387.508	1.788752
387.867	1.789389
388.227	1.789403
388.586	1.789434
388.946	1.790080
389.305	1.791809
389.665	1.793109
390.024	1.793942
390.383	1.794681
390.743	1.796172
391.102	1.796743
391.461	1.796455
391.820	1.797569
392.179	1.796693
392.539	1.797529
392.898	1.799242
393.257	1.799566
393.616	1.801770
393.975	1.802683
394.334	1.804059
394.693	1.804713
395.051	1.803435
395.410	1.803768
395.769	1.804677
396.128	1.806944
396.487	1.806379
396.845	1.805701
397.204	1.806584
397.563	1.806328
397.921	1.807374
398.280	1.806408
398.638	1.804529
398.997	1.805409
399.355	1.804225
399.714	1.805000
400.072	1.802858
400.431	1.801056
400.789	1.801018
401.147	1.799040
401.506	1.798501
401.864	1.796880
402.222	1.796281
402.580	1.795416
402.938	1.795089
403.297	1.794441
403.655	1.792291
404.013	1.792746
404.371	1.792629
404.729	1.790594
405.087	1.790413
405.444	1.789200
405.802	1.787289
406.160	1.788262
406.518	1.788094
406.876	1.788144
407.233	1.786790
407.591	1.787633
407.949	1.787910
408.306	1.787910
408.664	1.786578
409.022	1.786464
409.379	1.785993
409.737	1.785272
410.094	1.784858
410.451	1.783914
410.809	1.783932
411.166	1.783056
411.523	1.783350
411.881	1.782642
412.238	1.782199
412.595	1.780180
412.952	1.780503
413.310	1.780985
413.667	1.780968
414.024	1.781602
414.381	1.780520
414.738	1.779133
415.095	1.777355
415.452	1.775656
415.809	1.774133
416.165	1.773926
416.522	1.772922
416.879	1.771014
417.236	1.769769
417.593	1.769410
417.949	1.768983
418.306	1.768165
418.663	1.769502
419.019	1.767666
419.376	1.766836
419.732	1.766310
420.089	1.767065
420.445	1.766122
420.802	1.765987
421.158	1.764151
421.514	1.760992
421.871	1.759882
422.227	1.759054
422.583	1.759218
422.939	1.758192
423.295	1.757653
423.652	1.756100
424.008	1.754583
424.364	1.753635
424.720	1.752672
425.076	1.752443
425.432	1.750999
425.788	1.750000
426.143	1.748126
426.499	1.746224
426.855	1.746185
427.211	1.744630
427.567	1.742683
427.922	1.741641
428.278	1.738608
428.634	1.738316
428.989	1.736938
429.345	1.734833
429.700	1.733094
430.056	1.731286
430.411	1.731279
430.767	1.730121
431.122	1.729225
431.478	1.728407
431.833	1.727284
432.188	1.725131
432.543	1.722976
432.899	1.720274
433.254	1.717423
433.609	1.714890
433.964	1.714410
434.319	1.711678
434.674	1.709798
435.029	1.707881
435.384	1.705196
435.739	1.703800
436.094	1.702201
436.449	1.700917
436.804	1.700223
437.158	1.698048
437.513	1.696290
437.868	1.693488
438.223	1.691549
438.577	1.688762
438.932	1.687290
439.287	1.685076
439.641	1.683078
439.996	1.681016
440.350	1.679478
440.704	1.677941
441.059	1.675977
441.413	1.671956
441.768	1.669174
442.122	1.667657
442.476	1.664745
442.830	1.662321
443.185	1.659974
443.539	1.656969
443.893	1.654499
444.247	1.651135
444.601	1.649907
444.955	1.647014
445.309	1.644296
445.663	1.640982
446.017	1.638473
446.371	1.634872
446.724	1.632210
447.078	1.629754
447.432	1.627116
447.786	1.624127
448.139	1.620403
448.493	1.617395
448.847	1.614429
449.200	1.611500
449.554	1.608146
449.907	1.605581
450.261	1.601876
450.614	1.598616
450.968	1.595237
451.321	1.591993
451.674	1.588769
452.027	1.584325
452.381	1.580724
452.734	1.576993
453.087	1.573237
453.440	1.569135
453.793	1.565426
454.146	1.561737
454.499	1.558322
454.852	1.554266
455.205	1.550496
455.558	1.547698
455.911	1.544125
456.264	1.540594
456.617	1.537797
456.970	1.534079
457.322	1.530873
457.675	1.527974
458.028	1.525345
458.380	1.522182
458.733	1.519177
459.086	1.516243
459.438	1.513551
459.791	1.509845
460.143	1.507207
460.496	1.504974
460.848	1.502301
461.200	1.499282
461.553	1.496208
461.905	1.493225
462.257	1.490038
462.609	1.487186
462.961	1.483912
463.314	1.480489
463.666	1.477976
464.018	1.474622
464.370	1.471832
464.722	1.468523
465.074	1.465327
465.426	1.461785
465.777	1.458954
466.129	1.455686
466.481	1.452726
466.833	1.449769
467.184	1.447285
467.536	1.444197
467.888	1.440869
468.239	1.437980
468.591	1.435073
468.943	1.431440
469.294	1.427786
469.646	1.424265
469.997	1.420371
470.348	1.417031
470.700	1.414319
471.051	1.411437
471.402	1.408763
471.754	1.405573
472.105	1.403040
472.456	1.400419
472.807	1.397835
473.158	1.395396
473.509	1.392897
473.860	1.390317
474.211	1.387833
474.562	1.385672
474.913	1.382952
475.264	1.380051
475.615	1.377230
475.966	1.374619
476.316	1.372078
476.667	1.369607
477.018	1.367268
477.368	1.365102
477.719	1.362590
478.070	1.359910
478.420	1.357266
478.771	1.354456
479.121	1.351878
479.472	1.349504
479.822	1.347319
480.172	1.344837
480.523	1.342075
480.873	1.339346
481.223	1.336207
481.573	1.333300
481.924	1.330572
482.274	1.327794
482.624	1.325443
482.974	1.323429
483.324	1.321652
483.674	1.320225
484.024	1.318738
484.374	1.317302
484.724	1.315550
485.073	1.313980
485.423	1.312406
485.773	1.310835
486.123	1.309308
486.472	1.307672
486.822	1.306051
487.172	1.304459
487.521	1.302867
487.871	1.301255
488.220	1.299572
488.570	1.298058
488.919	1.295888
489.268	1.293092
489.618	1.290233
489.967	1.286767
490.316	1.282855
490.666	1.278993
491.015	1.275000
491.364	1.271342
491.713	1.267874
492.062	1.265020
492.411	1.262095
492.760	1.259442
493.109	1.256808
493.458	1.254300
493.807	1.251929
494.156	1.249123
494.505	1.246180
494.853	1.243650
495.202	1.241124
495.551	1.238704
495.900	1.236095
496.248	1.233374
496.597	1.230891
496.945	1.228574
497.294	1.226423
497.642	1.223975
497.991	1.221306
498.339	1.218632
498.688	1.216303
499.036	1.214149
499.384	1.211821
499.732	1.209473
500.081	1.207194
500.429	1.204614
500.777	1.202247
501.125	1.199985
501.473	1.197789
501.821	1.195693
502.169	1.193602
502.517	1.191415
502.865	1.189138
503.213	1.186644
503.561	1.184569
503.908	1.182513
504.256	1.180136
504.604	1.177741
504.952	1.175601
505.299	1.173392
505.647	1.171339
505.994	1.169076
506.342	1.166626
506.689	1.164438
507.037	1.162382
507.384	1.159999
507.732	1.157984
508.079	1.155702
508.426	1.153558
508.774	1.151313
509.121	1.149286
509.468	1.147168
509.815	1.145079
510.162	1.142982
510.509	1.141051
510.856	1.138928
511.203	1.137030
511.550	1.134907
511.897	1.133023
512.244	1.131142
512.591	1.128909
512.938	1.127022
513.284	1.125076
513.631	1.123356
513.978	1.121388
514.324	1.119446
514.671	1.117589
515.018	1.115595
515.364	1.113888
515.711	1.111985
516.057	1.110171
516.403	1.108222
516.750	1.106352
517.096	1.104636
517.443	1.102901
517.789	1.101056
518.135	1.099471
518.481	1.097419
518.827	1.095883
519.173	1.094106
519.519	1.092169
519.865	1.090622
520.211	1.088914
520.557	1.087189
520.903	1.085204
521.249	1.083426
521.595	1.081615
521.941	1.079666
522.287	1.077875
522.632	1.075724
522.978	1.073831
523.324	1.071970
523.669	1.070219
524.015	1.068189
524.360	1.066108
524.706	1.064294
525.051	1.062632
525.397	1.060709
525.742	1.058955
526.087	1.057344
526.433	1.055604
526.778	1.054151
527.123	1.052442
527.468	1.050626
527.813	1.048941
528.158	1.047231
528.504	1.045340
528.849	1.043503
529.193	1.041918
529.538	1.040250
529.883	1.038350
530.228	1.036214
530.573	1.034383
530.918	1.032381
531.263	1.030595
531.607	1.028912
531.952	1.026914
532.296	1.024950
532.641	1.023242
532.986	1.021171
533.330	1.019060
533.675	1.017382
534.019	1.015405
534.363	1.013497
534.708	1.011513
535.052	1.009498
535.396	1.007594
535.741	1.005813
536.085	1.003674
536.429	1.001461
536.773	0.999237
537.117	0.997221
537.461	0.995109
537.805	0.992810
538.149	0.990522
538.493	0.988019
538.837	0.985672
539.181	0.983289
539.524	0.980885
539.868	0.978326
540.212	0.975908
540.556	0.973603
540.899	0.971002
541.243	0.968505
541.586	0.966034
541.930	0.963613
542.273	0.961117
542.617	0.958579
542.960	0.955938
543.304	0.953440
543.647	0.950805
543.990	0.948053
544.333	0.945207
544.677	0.942488
545.020	0.939793
545.363	0.937127
545.706	0.934401
546.049	0.931601
546.392	0.928920
546.735	0.926123
547.078	0.923287
547.421	0.920465
547.764	0.917468
548.106	0.914239
548.449	0.910912
548.792	0.907814
549.135	0.904535
549.477	0.901230
549.820	0.898200
550.162	0.895161
550.505	0.891920
550.847	0.888758
551.190	0.885353
551.532	0.881891
551.875	0.878204
552.217	0.874479
552.559	0.870748
552.901	0.867277
553.244	0.863723
553.586	0.860308
553.928	0.857062
554.270	0.853795
554.612	0.850667
554.954	0.847469
555.296	0.844124
555.638	0.840805
555.980	0.837049
556.322	0.833276
556.663	0.829469
557.005	0.825396
557.347	0.821455
557.689	0.817558
558.030	0.813748
558.372	0.810022
558.713	0.806338
559.055	0.802604
559.396	0.798903
559.738	0.795071
560.079	0.791192
560.421	0.787359
560.762	0.783563
561.103	0.779866
561.444	0.776071
561.786	0.772351
562.127	0.768653
562.468	0.765054
562.809	0.761361
563.150	0.757578
563.491	0.753711
563.832	0.749578
564.173	0.745500
564.514	0.741243
564.855	0.736953
565.195	0.732440
565.536	0.728035
565.877	0.723731
566.218	0.719494
566.558	0.715373
566.899	0.711369
567.239	0.707600
567.580	0.704066
567.920	0.700802
568.261	0.697716
568.601	0.694858
568.941	0.692046
569.282	0.689356
569.622	0.686733
569.962	0.684139
570.302	0.681567
570.643	0.679040
570.983	0.676693
571.323	0.674341
571.663	0.672038
572.003	0.669753
572.343	0.667495
572.683	0.665057
573.022	0.662539
573.362	0.659974
573.702	0.657283
574.042	0.654693
574.381	0.652108
574.721	0.649654
575.061	0.647230
575.400	0.644966
575.740	0.642766
576.079	0.640602
576.419	0.638300
576.758	0.635934
577.097	0.633433
577.437	0.630850
577.776	0.628222
578.115	0.625566
578.454	0.623092
578.794	0.620873
579.133	0.618849
579.472	0.616963
579.811	0.615268
580.150	0.613556
580.489	0.611783
580.828	0.609938
581.167	0.608022
581.505	0.606126
581.844	0.604192
582.183	0.602255
582.522	0.600351
582.860	0.598491
583.199	0.596729
583.538	0.595063
583.876	0.593413
584.215	0.591789
584.553	0.590153
584.891	0.588508
585.230	0.586881
585.568	0.585158
585.906	0.583349
586.245	0.581586
586.583	0.579908
586.921	0.578346
587.259	0.576945
587.597	0.575613
587.935	0.574243
588.273	0.572752
588.611	0.571068
588.949	0.569268
589.287	0.567468
589.625	0.565590
589.963	0.563827
590.300	0.562101
590.638	0.560490
590.976	0.558906
591.313	0.557298
591.651	0.555678
591.989	0.554124
592.326	0.552593
592.664	0.551236
593.001	0.549898
593.338	0.548660
593.676	0.547564
594.013	0.546470
594.350	0.545391
594.687	0.544332
595.025	0.543360
595.362	0.542358
595.699	0.541249
596.036	0.540153
596.373	0.539001
596.710	0.537883
597.047	0.536683
597.384	0.535525
597.720	0.534367
598.057	0.533184
598.394	0.532032
598.731	0.530895
599.067	0.529768
599.404	0.528646
599.741	0.527502
600.077	0.526464
600.414	0.525501
600.750	0.524586
601.087	0.523699
601.423	0.522801
601.759	0.521948
602.096	0.521012
602.432	0.520132
602.768	0.519274
603.104	0.518400
603.440	0.517524
603.776	0.516676
604.112	0.515864
604.448	0.515062
604.784	0.514293
605.120	0.513556
605.456	0.512842
605.792	0.512113
606.128	0.511362
606.463	0.510625
606.799	0.509846
607.135	0.509095
607.470	0.508322
607.806	0.507522
608.142	0.506751
608.477	0.506067
608.812	0.505311
609.148	0.504640
609.483	0.503891
609.819	0.503203
610.154	0.502471
610.489	0.501762
610.824	0.501023
611.159	0.500352
611.494	0.499641
611.830	0.499004
612.165	0.498431
612.500	0.497851
612.834	0.497309
613.169	0.496804
613.504	0.496258
613.839	0.495721
614.174	0.495100
614.509	0.494522
614.843	0.493956
615.178	0.493398
615.512	0.492791
615.847	0.492275
616.182	0.491777
616.516	0.491346
616.850	0.490874
617.185	0.490429
617.519	0.489982
617.853	0.489553
618.188	0.488937
618.522	0.488304
618.856	0.487648
619.190	0.486981
619.524	0.486352
619.858	0.485717
620.192	0.485157
620.526	0.484608
620.860	0.484153
621.194	0.483635
621.528	0.483116
621.862	0.482664
622.195	0.482244
622.529	0.481714
622.863	0.481170
623.196	0.480659
623.530	0.480138
623.864	0.479608
624.197	0.479140
624.530	0.478588
624.864	0.478146
625.197	0.477820
625.531	0.477452
625.864	0.477026
626.197	0.476560
626.530	0.476115
626.863	0.475647
627.196	0.475081
627.529	0.474595
627.862	0.473999
628.195	0.473524
628.528	0.472986
628.861	0.472329
629.194	0.471879
629.527	0.471469
629.860	0.471103
630.192	0.470564
630.525	0.469988
630.858	0.469544
631.190	0.468873
631.523	0.468354
631.855	0.467577
632.188	0.466838
632.520	0.466276
632.852	0.465663
633.185	0.465124
633.517	0.464568
633.849	0.464087
634.182	0.463667
634.514	0.463249
634.846	0.462893
635.178	0.462523
635.510	0.462144
635.842	0.461908
636.174	0.461337
636.506	0.460905
636.837	0.460407
637.169	0.460045
637.501	0.459710
637.833	0.459336
638.164	0.459046
638.496	0.458573
638.828	0.458207
639.159	0.457723
639.491	0.457219
639.822	0.456747
640.154	0.456112
640.485	0.455374
640.816	0.454731
641.147	0.454089
641.479	0.453304
641.810	0.452667
642.141	0.451995
642.472	0.451389
642.803	0.450626
643.134	0.449980
643.465	0.449442
643.796	0.448839
644.127	0.448169
644.458	0.447606
644.789	0.447206
645.119	0.446850
645.450	0.446712
645.781	0.446700
646.111	0.446792
646.442	0.446756
646.773	0.446680
647.103	0.446586
647.433	0.446549
647.764	0.446377
648.094	0.445957
648.425	0.445903
648.755	0.445837
649.085	0.445606
649.415	0.445355
649.745	0.445412
650.075	0.445494
650.405	0.445320
650.735	0.443644
651.065	0.435245
651.395	0.426772
651.725	0.410452
652.055	0.368362
652.385	0.328148
652.715	0.294181
653.044	0.267089
653.374	0.253977
653.704	0.257691
654.033	0.273317
654.363	0.282714
654.692	0.288209
655.022	0.291456
655.351	0.293415
655.680	0.294556
656.010	0.295162
656.339	0.295427
656.668	0.295468
656.997	0.295399
657.326	0.295258
657.655	0.295022
657.984	0.293471
658.313	0.287370
658.642	0.278693
658.971	0.280026
659.300	0.291207
659.629	0.314365
659.958	0.354155
660.286	0.403529
660.615	0.439790
660.944	0.437806
661.272	0.434783
661.601	0.432668
661.929	0.431760
662.258	0.431770
662.586	0.432060
662.915	0.432225
663.243	0.431931
663.571	0.431422
663.899	0.430997
664.228	0.430596
664.556	0.430166
664.884	0.429713
665.212	0.429459
665.540	0.429016
665.868	0.428651
666.196	0.428297
666.524	0.428174
666.852	0.427952
667.179	0.427696
667.507	0.427499
667.835	0.427201
668.162	0.427003
668.490	0.426780
668.818	0.426621
669.145	0.426549
669.473	0.426344
669.800	0.426398
670.127	0.426392
670.455	0.426447
670.782	0.426405
671.109	0.426308
671.436	0.426263
671.764	0.426262
672.091	0.426193
672.418	0.426088
672.745	0.425956
673.072	0.425934
673.399	0.425647
673.726	0.425382
674.053	0.425144
674.379	0.424882
674.706	0.424681
675.033	0.424220
675.359	0.423932
675.686	0.423507
676.013	0.423065
676.339	0.422824
676.666	0.422365
676.992	0.421990
677.318	0.421739
677.645	0.421410
677.971	0.421139
678.297	0.420834
678.624	0.420690
678.950	0.420392
679.276	0.420275
679.602	0.420118
679.928	0.419750
680.254	0.419355
680.580	0.419034
680.906	0.418718
681.232	0.418353
681.558	0.418180
681.883	0.418103
682.209	0.418001
682.535	0.418041
682.860	0.417817
683.186	0.417678
683.511	0.417483
683.837	0.417288
684.162	0.417097
684.488	0.416881
684.813	0.416641
685.138	0.416438
685.464	0.416155
685.789	0.415901
686.114	0.415712
686.439	0.415436
686.764	0.415198
687.089	0.415129
687.414	0.415062
687.739	0.414906
688.064	0.414723
688.389	0.414622
688.714	0.414401
689.039	0.414010
689.363	0.413585
689.688	0.413393
690.013	0.413041
690.337	0.412790
690.662	0.412526
690.986	0.412227
691.311	0.411909
691.635	0.411644
691.959	0.411400
692.284	0.411062
692.608	0.410772
692.932	0.410436
693.256	0.410188
693.580	0.410151
693.904	0.409994
694.228	0.409821
694.552	0.409741
694.876	0.409679
695.200	0.409412
695.524	0.409132
695.848	0.408969
696.172	0.408682
696.495	0.408249
696.819	0.407931
697.143	0.407422
697.466	0.406955
697.790	0.406452
698.113	0.406194
698.437	0.405843
698.760	0.405546
699.083	0.405380
699.407	0.405267
699.730	0.405072
700.053	0.405042
700.376	0.404713
700.699	0.404363
701.022	0.403890
701.345	0.403237
701.668	0.402526
701.991	0.401771
702.314	0.400972
702.637	0.400062
702.960	0.399270
703.283	0.398659
703.605	0.398050
703.928	0.397800
704.251	0.397636
704.573	0.397591
704.896	0.397417
705.218	0.397205
705.540	0.397064
705.863	0.396701
706.185	0.396232
706.507	0.395716
706.830	0.395047
707.152	0.394398
707.474	0.393913
707.796	0.393349
708.118	0.392870
708.440	0.392631
708.762	0.392462
709.084	0.392272
709.406	0.392136
709.728	0.391944
710.049	0.391822
710.371	0.391616
710.693	0.391257
711.014	0.390819
711.336	0.390443
711.658	0.390085
711.979	0.389781
712.301	0.389311
712.622	0.389055
712.943	0.388704
713.265	0.388506
713.586	0.388337
713.907	0.388267
714.228	0.388143
714.549	0.388099
714.870	0.388113
715.191	0.388068
715.512	0.387886
715.833	0.387826
716.154	0.387739
716.475	0.387540
716.796	0.387238
717.117	0.386805
717.437	0.386437
717.758	0.386046
718.078	0.385535
718.399	0.385108
718.719	0.384683
719.040	0.384421
719.360	0.384060
719.681	0.383934
720.001	0.383766
720.321	0.383526
720.642	0.383360
720.962	0.383043
721.282	0.382831
721.602	0.382650
721.922	0.382321
722.242	0.382072
722.562	0.381839
722.882	0.381618
723.202	0.381597
723.521	0.381513
723.841	0.381561
724.161	0.381397
724.481	0.381374
724.800	0.381341
725.120	0.381225
725.439	0.381060
725.759	0.380916
726.078	0.380922
726.398	0.380778
726.717	0.380556
727.036	0.380452
727.355	0.380371
727.675	0.380509
727.994	0.380580
728.313	0.380611
728.632	0.380712
728.951	0.380734
729.270	0.380650
729.589	0.380493
729.908	0.380271
730.226	0.380043
730.545	0.379776
730.864	0.379614
731.182	0.379407
731.501	0.379240
731.820	0.379089
732.138	0.379058
732.457	0.378931
732.775	0.378809
733.093	0.378756
733.412	0.378777
733.730	0.378771
734.048	0.378646
734.367	0.378332
734.685	0.378142
735.003	0.377817
735.321	0.377477
735.639	0.377104
735.957	0.376799
736.275	0.376548
736.593	0.376426
736.910	0.376214
737.228	0.376266
737.546	0.376197
737.863	0.376087
738.181	0.375876
738.499	0.375639
738.816	0.375367
739.134	0.375068
739.451	0.374759
739.768	0.374529
740.086	0.374130
740.403	0.373704
740.720	0.373381
741.038	0.373077
741.355	0.372612
741.672	0.372239
741.989	0.371837
742.306	0.371464
742.623	0.371044
742.940	0.370554
743.257	0.369844
743.573	0.369368
743.890	0.368584
744.207	0.367962
744.523	0.367455
744.840	0.367089
745.157	0.366731
745.473	0.366333
745.790	0.366018
746.106	0.365612
746.422	0.365079
746.739	0.364797
747.055	0.364689
747.371	0.364467
747.687	0.364430
748.004	0.364356
748.320	0.364318
748.636	0.364280
748.952	0.364294
749.268	0.364318
749.584	0.364405
749.899	0.364517
750.215	0.364545
750.531	0.364373
750.847	0.364371
751.162	0.364247
751.478	0.364200
751.793	0.364040
752.109	0.363971
752.424	0.363900
752.740	0.363760
753.055	0.363785
753.370	0.363829
753.686	0.363860
754.001	0.364049
754.316	0.364247
754.631	0.364440
754.946	0.364507
755.261	0.364710
755.576	0.364858
755.891	0.364906
756.206	0.364841
756.521	0.364619
756.836	0.364523
757.150	0.364590
757.465	0.364617
757.780	0.364645
758.094	0.364710
758.409	0.364781
758.723	0.364837
759.038	0.364779
759.352	0.364864
759.667	0.364802
759.981	0.364652
760.295	0.364372
760.609	0.364117
760.923	0.363815
761.238	0.363516
761.552	0.363286
761.866	0.362956
762.180	0.362697
762.493	0.362571
762.807	0.362467
763.121	0.362494
763.435	0.362385
763.749	0.362118
764.062	0.361780
764.376	0.361495
764.689	0.361032
765.003	0.360727
765.316	0.360402
765.630	0.360338
765.943	0.360140
766.257	0.360027
766.570	0.359836
766.883	0.359635
767.196	0.359297
767.509	0.358926
767.822	0.358566
768.135	0.358233
768.448	0.357957
768.761	0.357607
769.074	0.357168
769.387	0.356716
769.700	0.356327
770.013	0.356103
770.325	0.355953
770.638	0.355822
770.950	0.355649
771.263	0.355498
771.575	0.355261
771.888	0.354954
772.200	0.354511
772.513	0.354086
772.825	0.353618
773.137	0.353171
773.449	0.352897
773.761	0.352564
774.074	0.352196
774.386	0.351777
774.698	0.351340
775.010	0.350751
775.321	0.350319
775.633	0.349891
775.945	0.349663
776.257	0.349604
776.568	0.349307
776.880	0.349030
777.192	0.348904
777.503	0.348777
777.815	0.348673
778.126	0.348544
778.438	0.348644
778.749	0.348853
779.060	0.348882
779.372	0.348924
779.683	0.349004
779.994	0.348980
780.305	0.349016
780.616	0.349073
780.927	0.349169
781.238	0.349089
781.549	0.349086
781.860	0.349128
782.171	0.349150
782.481	0.349129
782.792	0.348816
783.103	0.348688
783.413	0.348589
783.724	0.348247
784.034	0.347999
784.345	0.347731
784.655	0.347583
784.966	0.347316
785.276	0.346912
785.586	0.346714
785.896	0.346436
786.207	0.346263
786.517	0.346172
786.827	0.345972
787.137	0.345819
787.447	0.345581
787.757	0.345572
788.066	0.345483
788.376	0.345348
788.686	0.345310
788.996	0.345328
789.305	0.345376
789.615	0.345311
789.925	0.345202
790.234	0.345145
790.544	0.345105
790.853	0.345008
791.162	0.345034
791.472	0.344906
791.781	0.344969
792.090	0.344936
792.399	0.344888
792.708	0.344730
793.017	0.344587
793.326	0.344452
793.635	0.344205
793.944	0.343989
794.253	0.343604
794.562	0.343255
794.871	0.343008
795.179	0.342738
795.488	0.342373
795.797	0.342079
796.105	0.341756
796.414	0.341521
796.722	0.341485
797.031	0.341291
797.339	0.341073
797.647	0.340404
797.956	0.339896
798.264	0.339138
798.572	0.338389
798.880	0.337925
799.188	0.337474
799.496	0.336871
799.804	0.336450
800.112	0.336157
800.420	0.335882
800.728	0.335782
801.035	0.335640
801.343	0.335146
801.651	0.334687
801.958	0.334279
802.266	0.334109
802.573	0.334199
802.881	0.334174
803.188	0.333742
803.496	0.333687
803.803	0.333835
804.110	0.333987
804.417	0.334031
804.724	0.334016
805.032	0.334020
805.339	0.333856
805.646	0.333585
805.953	0.333286
806.259	0.333112
806.566	0.332905
806.873	0.332902
807.180	0.332884
807.486	0.332828
807.793	0.332876
808.100	0.332849
808.406	0.332777
808.713	0.332531
809.019	0.331860
809.326	0.331235
809.632	0.330962
809.938	0.330069
810.244	0.329293
810.551	0.328515
810.857	0.327719
811.163	0.327268
811.469	0.326845
811.775	0.326407
812.081	0.326319
812.387	0.326201
812.692	0.326043
812.998	0.325923
813.304	0.325636
813.610	0.325452
813.915	0.325067
814.221	0.324813
814.526	0.324751
814.832	0.324644
815.137	0.324402
815.443	0.324356
815.748	0.324528
816.053	0.324360
816.358	0.324157
816.664	0.323898
816.969	0.323865
817.274	0.323939
817.579	0.323431
817.884	0.323423
818.189	0.323291
818.493	0.322998
818.798	0.322923
819.103	0.322855
819.408	0.322671
819.712	0.322218
820.017	0.321593
820.321	0.321295
820.626	0.320947
820.930	0.320398
821.235	0.319893
821.539	0.319652
821.843	0.319376
822.148	0.318817
822.452	0.318745
822.756	0.318947
823.060	0.318622
823.364	0.318430
823.668	0.318117
823.972	0.318192
824.276	0.317592
824.580	0.317244
824.883	0.317217
825.187	0.316964
825.491	0.316603
825.795	0.316112
826.098	0.316163
826.402	0.316233
826.705	0.316177
827.008	0.315815
827.312	0.315804
827.615	0.315680
827.918	0.315268
828.222	0.314816
828.525	0.314486
828.828	0.314138
829.131	0.313808
829.434	0.313511
829.737	0.312603
830.040	0.311840
830.343	0.311150
830.645	0.310379
830.948	0.309955
831.251	0.309037
831.553	0.308455
831.856	0.307893
832.159	0.308066
832.461	0.307649
832.764	0.307381
833.066	0.306653
833.368	0.306517
833.671	0.305558
833.973	0.305039
834.275	0.304744
834.577	0.304434
834.879	0.304328
835.181	0.303333
835.483	0.302297
835.785	0.301786
836.087	0.301807
836.389	0.301450
836.690	0.300491
836.992	0.300065
837.294	0.298827
837.595	0.297871
837.897	0.296831
838.198	0.296065
838.500	0.294385
838.801	0.293284
839.103	0.291864
839.404	0.291167
839.705	0.290146
840.006	0.289643
840.307	0.289688
840.608	0.289532
840.910	0.289716
841.210	0.289661
841.511	0.289900
841.812	0.290511
842.113	0.290512
842.414	0.289804
842.715	0.288856
843.015	0.288605
843.316	0.287511
843.616	0.286638
843.917	0.286034
844.217	0.285784
844.518	0.285090
844.818	0.285074
845.118	0.284358
845.419	0.284136
845.719	0.284650
846.019	0.284396
846.319	0.284700
846.619	0.284001
846.919	0.283764
847.219	0.283644
847.519	0.282599
847.819	0.282763
848.118	0.281821
848.418	0.281321
848.718	0.280450
849.017	0.280429
849.317	0.280352
849.616	0.280678
849.916	0.281567
850.215	0.282629
850.515	0.283380
850.814	0.284094
851.113	0.284670
851.412	0.285251
851.712	0.285659
852.011	0.285509
852.310	0.286078
852.609	0.286216
852.908	0.286431
853.206	0.286242
853.505	0.286548
853.804	0.287099
854.103	0.286906
854.401	0.286913
854.700	0.286668
854.999	0.286604
855.297	0.286618
855.595	0.286791
855.894	0.287019
856.192	0.286725
856.491	0.285616
856.789	0.284901
857.087	0.283874
857.385	0.282841
857.683	0.281957
857.981	0.281354
858.279	0.281036
858.577	0.279929
858.875	0.278912
859.173	0.277836
859.471	0.277443
859.768	0.275936
860.066	0.274499
860.363	0.273822
860.661	0.273646
860.959	0.272867
861.256	0.272878
861.553	0.272617
861.851	0.271262
862.148	0.270322
862.445	0.269709
862.742	0.269638
863.039	0.268553
863.337	0.267747
863.634	0.266889
863.931	0.266454
864.227	0.265634
864.524	0.264345
864.821	0.263323
865.118	0.262041
865.415	0.261231
865.711	0.260259
866.008	0.259639
866.304	0.258965
866.601	0.258460
866.897	0.256963
867.194	0.256851
867.490	0.255941
867.786	0.255226
868.082	0.255369
868.379	0.254927
868.675	0.255281
868.971	0.255296
869.267	0.255667
869.563	0.256191
869.859	0.255744
870.154	0.254750
870.450	0.254185
870.746	0.253704
871.042	0.254264
871.337	0.254996
871.633	0.254864
871.928	0.254981
872.224	0.254305
872.519	0.252870
872.815	0.252752
873.110	0.253153
873.405	0.253357
873.700	0.252952
873.995	0.252114
874.291	0.251799
874.586	0.252359
874.881	0.251486
875.175	0.251033
875.470	0.250567
875.765	0.250358
876.060	0.250815
876.355	0.251129
876.649	0.251665
876.944	0.252400
877.238	0.252548
877.533	0.253220
877.827	0.254269
878.122	0.255154
878.416	0.255698
878.710	0.257256
879.005	0.256842
879.299	0.256577
879.593	0.256451
879.887	0.256613
880.181	0.256812
880.475	0.257054
880.769	0.256544
881.063	0.256730
881.356	0.257157
881.650	0.257188
881.944	0.256208
882.238	0.247009
882.531	0.259351
882.825	0.245987
883.118	0.241943
883.412	0.256431
883.705	0.256971
883.998	0.255746
884.291	0.252975
884.585	0.250895
884.878	0.231433
>>>>>>>>>> END of Data <<<<<<<<<<
>>>>>>>>>> Raw Data Start <<<<<<<<
190.664	-410
191.040	6
191.415	6
191.791	4
192.166	5
192.542	11
192.917	4
193.293	6
193.668	3
194.044	8
194.419	-12
194.794	8
195.170	8
195.545	9
195.920	9
196.296	9
196.671	9
197.046	10
197.421	10
197.796	11
198.171	11
198.546	11
198.922	11
199.297	12
199.672	12
200.047	12
200.422	13
200.796	13
201.171	13
201.546	13
201.921	13
202.296	13
202.671	13
203.045	13
203.420	13
203.795	13
204.170	13
204.544	13
204.919	13
205.294	13
205.668	13
206.043	13
206.417	12
206.792	12
207.166	12
207.541	11
207.915	11
208.289	11
208.664	10
209.038	10
209.412	10
209.787	10
210.161	10
210.535	11
210.909	11
211.284	11
211.658	11
212.032	10
212.406	11
212.780	11
213.154	10
213.528	11
213.902	10
214.276	11
214.650	11
215.024	11
215.398	11
215.772	11
216.145	11
216.519	11
216.893	11
217.267	11
217.640	11
218.014	12
218.388	12
218.761	12
219.135	12
219.508	12
219.882	12
220.256	12
220.629	12
221.003	12
221.376	12
221.749	13
222.123	13
222.496	13
222.869	13
223.243	13
223.616	13
223.989	13
224.362	13
224.736	13
225.109	14
225.482	14
225.855	13
226.228	13
226.601	13
226.974	13
227.347	13
227.720	13
228.093	13
228.466	13
228.839	13
229.212	13
229.585	13
229.957	12
230.330	13
230.703	13
231.076	13
231.448	13
231.821	12
232.194	12
232.566	12
232.939	12
233.311	12
233.684	12
234.056	12
234.429	12
234.801	12
235.174	12
235.546	12
235.918	12
236.291	12
236.663	13
237.035	13
237.408	13
237.780	13
238.152	13
238.524	13
238.896	13
239.268	13
239.641	14
240.013	14
240.385	13
240.757	13
241.129	14
241.500	13
241.872	13
242.244	13
242.616	13
242.988	13
243.360	13
243.731	13
244.103	13
244.475	12
244.847	12
245.218	12
245.590	13
245.961	12
246.333	13
246.705	12
247.076	12
247.448	12
247.819	12
248.190	12
248.562	13
248.933	13
249.305	13
249.676	13
250.047	13
250.418	13
250.790	13
251.161	13
251.532	13
251.903	13
252.274	13
252.645	13
253.016	13
253.387	13
253.758	14
254.129	13
254.500	14
254.871	14
255.242	14
255.613	14
255.984	14
256.355	14
256.725	14
257.096	14
257.467	14
257.838	13
258.208	13
258.579	14
258.949	13
259.320	13
259.690	14
260.061	14
260.431	14
260.802	14
261.172	14
261.543	14
261.913	14
262.283	14
262.654	14
263.024	13
263.394	13
263.764	13
264.135	14
264.505	14
264.875	14
265.245	14
265.615	14
265.985	14
266.355	14
266.725	14
267.095	14
267.465	14
267.835	14
268.205	14
268.575	14
268.944	14
269.314	14
269.684	14
270.054	14
270.423	14
270.793	14
271.163	14
271.532	14
271.902	13
272.271	13
272.641	13
273.010	13
273.380	14
273.749	13
274.119	13
274.488	13
274.857	13
275.227	13
275.596	13
275.965	13
276.335	14
276.704	14
277.073	14
277.442	14
277.811	14
278.180	14
278.549	13
278.918	14
279.287	14
279.656	14
280.025	14
280.394	14
280.763	14
281.132	14
281.501	14
281.869	14
282.238	14
282.607	13
282.976	13
283.344	13
283.713	13
284.081	13
284.450	13
284.819	13
285.187	13
285.556	13
285.924	13
286.292	13
286.661	13
287.029	13
287.398	13
287.766	14
288.134	14
288.502	14
288.871	14
289.239	14
289.607	14
289.975	14
290.343	14
290.711	14
291.079	15
291.447	14
291.815	14
292.183	14
292.551	14
292.919	14
293.287	14
293.655	15
294.022	15
294.390	14
294.758	14
295.126	14
295.493	14
295.861	14
296.229	14
296.596	14
296.964	13
297.331	14
297.699	14
298.066	14
298.434	14
298.801	14
299.168	14
299.536	14
299.903	14
300.270	14
300.638	14
301.005	14
301.372	14
301.739	14
302.106	14
302.473	15
302.840	15
303.207	14
303.574	14
303.941	14
304.308	14
304.675	14
305.042	14
305.409	14
305.776	14
306.143	14
306.509	14
306.876	14
307.243	14
307.610	14
307.976	14
308.343	14
308.709	14
309.076	14
309.442	14
309.809	14
310.175	14
310.542	14
310.908	15
311.275	15
311.641	15
312.007	15
312.373	15
312.740	16
313.106	16
313.472	16
313.838	16
314.204	16
314.570	16
314.936	16
315.302	17
315.668	17
316.034	17
316.400	16
316.766	16
317.132	16
317.498	16
317.864	16
318.230	16
318.595	16
318.961	16
319.327	16
319.692	16
320.058	17
320.424	17
320.789	17
321.155	18
321.520	18
321.886	18
322.251	18
322.616	18
322.982	19
323.347	20
323.712	20
324.078	21
324.443	21
324.808	22
325.173	23
325.539	23
325.904	24
326.269	24
326.634	25
326.999	25
327.364	26
327.729	26
328.094	27
328.459	27
328.823	28
329.188	28
329.553	29
329.918	29
330.283	30
330.647	30
331.012	30
331.377	31
331.741	32
332.106	32
332.470	33
332.835	34
333.199	34
333.564	35
333.928	35
334.293	36
334.657	37
335.021	37
335.386	38
335.750	39
336.114	40
336.478	41
336.843	42
337.207	43
337.571	43
337.935	44
338.299	45
338.663	46
339.027	46
339.391	47
339.755	48
340.119	48
340.483	50
340.846	50
341.210	51
341.574	52
341.938	52
342.301	53
342.665	54
343.029	54
343.392	54
343.756	55
344.119	56
344.483	56
344.846	57
345.210	58
345.573	58
345.937	59
346.300	60
346.663	60
347.027	60
347.390	61
347.753	61
348.116	62
348.479	62
348.843	63
349.206	64
349.569	65
349.932	65
350.295	66
350.658	66
351.021	66
351.383	67
351.746	67
352.109	67
352.472	68
352.835	68
353.197	69
353.560	69
353.923	69
354.285	70
354.648	71
355.011	71
355.373	71
355.736	71
356.098	72
356.461	72
356.823	73
357.185	73
357.548	73
357.910	73
358.272	74
358.635	75
358.997	76
359.359	76
359.721	76
360.083	77
360.445	77
360.807	77
361.169	78
361.531	78
361.893	78
362.255	78
362.617	78
362.979	78
363.341	79
363.703	80
364.064	80
364.426	80
364.788	80
365.149	81
365.511	81
365.873	81
366.234	81
366.596	81
366.957	81
367.319	81
367.680	81
368.042	82
368.403	82
368.764	82
369.126	82
369.487	82
369.848	83
370.209	83
370.570	83
370.931	83
371.293	83
371.654	83
372.015	83
372.376	82
372.737	82
373.098	83
373.458	83
373.819	83
374.180	83
374.541	83
374.902	83
375.263	83
375.623	83
375.984	83
376.345	83
376.705	83
377.066	83
377.426	84
377.787	84
378.147	84
378.508	85
378.868	85
379.228	85
379.589	86
379.949	86
380.309	86
380.670	86
381.030	86
381.390	86
381.750	87
382.110	87
382.470	87
382.830	87
383.190	87
383.550	87
383.910	87
384.270	87
384.630	88
384.990	88
385.350	87
385.709	88
386.069	87
386.429	88
386.788	88
387.148	87
387.508	87
387.867	87
388.227	88
388.586	88
388.946	88
389.305	89
389.665	89
390.024	89
390.383	90
390.743	90
391.102	90
391.461	90
391.820	90
392.179	91
392.539	91
392.898	91
393.257	91
393.616	91
393.975	91
394.334	91
394.693	92
395.051	93
395.410	93
395.769	94
396.128	94
396.487	94
396.845	94
397.204	94
397.563	94
397.921	94
398.280	94
398.638	95
398.997	95
399.355	95
399.714	95
400.072	95
400.431	96
400.789	96
401.147	97
401.506	97
401.864	97
402.222	97
402.580	97
402.938	97
403.297	97
403.655	97
404.013	97
404.371	97
404.729	97
405.087	97
405.444	97
405.802	98
406.160	98
406.518	98
406.876	98
407.233	98
407.591	98
407.949	98
408.306	98
408.664	98
409.022	98
409.379	98
409.737	98
410.094	98
410.451	99
410.809	99
411.166	99
411.523	99
411.881	100
412.238	100
412.595	100
412.952	100
413.310	100
413.667	100
414.024	100
414.381	100
414.738	101
415.095	101
415.452	102
415.809	102
416.165	102
416.522	102
416.879	103
417.236	104
417.593	104
417.949	105
418.306	106
418.663	106
419.019	108
419.376	109
419.732	110
420.089	110
420.445	111
420.802	112
421.158	113
421.514	114
421.871	115
422.227	116
422.583	116
422.939	117
423.295	117
423.652	118
424.008	118
424.364	119
424.720	119
425.076	119
425.432	119
425.788	119
426.143	119
426.499	120
426.855	120
427.211	121
427.567	122
427.922	122
428.278	123
428.634	123
428.989	123
429.345	123
429.700	124
430.056	125
430.411	125
430.767	126
431.122	126
431.478	127
431.833	127
432.188	128
432.543	128
432.899	129
433.254	130
433.609	130
433.964	130
434.319	130
434.674	130
435.029	130
435.384	131
435.739	131
436.094	132
436.449	132
436.804	133
437.158	134
437.513	136
437.868	137
438.223	139
438.577	141
438.932	143
439.287	145
439.641	146
439.996	148
440.350	150
440.704	152
441.059	154
441.413	156
441.768	158
442.122	160
442.476	162
442.830	164
443.185	166
443.539	168
443.893	169
444.247	171
444.601	172
444.955	173
445.309	174
445.663	175
446.017	175
446.371	176
446.724	176
447.078	177
447.432	177
447.786	177
448.139	177
448.493	177
448.847	177
449.200	177
449.554	177
449.907	177
450.261	177
450.614	177
450.968	177
451.321	177
451.674	178
452.027	178
452.381	178
452.734	179
453.087	180
453.440	180
453.793	181
454.146	182
454.499	184
454.852	186
455.205	187
455.558	189
455.911	191
456.264	193
456.617	195
456.970	197
457.322	198
457.675	200
458.028	201
458.380	203
458.733	204
459.086	205
459.438	207
459.791	208
460.143	210
460.496	212
460.848	214
461.200	217
461.553	220
461.905	223
462.257	225
462.609	227
462.961	230
463.314	232
463.666	233
464.018	235
464.370	237
464.722	239
465.074	241
465.426	243
465.777	244
466.129	246
466.481	247
466.833	248
467.184	249
467.536	249
467.888	249
468.239	249
468.591	249
468.943	249
469.294	250
469.646	251
469.997	252
470.348	254
470.700	256
471.051	258
471.402	261
471.754	265
472.105	269
472.456	273
472.807	277
473.158	282
473.509	287
473.860	293
474.211	299
474.562	306
474.913	312
475.264	319
475.615	327
475.966	334
476.316	340
476.667	347
477.018	354
477.368	361
477.719	368
478.070	375
478.420	382
478.771	389
479.121	395
479.472	402
479.822	408
480.172	416
480.523	424
480.873	436
481.223	454
481.573	482
481.924	516
482.274	555
482.624	595
482.974	636
483.324	671
483.674	698
484.024	717
484.374	729
484.724	738
485.073	744
485.423	750
485.773	755
486.123	759
486.472	764
486.822	769
487.172	773
487.521	776
487.871	778
488.220	776
488.570	767
488.919	749
489.268	725
489.618	695
489.967	664
490.316	633
490.666	605
491.015	586
491.364	575
491.713	570
492.062	569
492.411	571
492.760	573
493.109	576
493.458	579
493.807	581
494.156	584
494.505	587
494.853	589
495.202	592
495.551	596
495.900	600
496.248	604
496.597	608
496.945	612
497.294	615
497.642	620
497.991	625
498.339	630
498.688	636
499.036	641
499.384	646
499.732	651
500.081	655
500.429	659
500.777	662
501.125	666
501.473	669
501.821	672
502.169	675
502.517	678
502.865	680
503.213	682
503.561	683
503.908	684
504.256	685
504.604	686
504.952	686
505.299	686
505.647	685
505.994	684
506.342	683
506.689	682
507.037	680
507.384	680
507.732	680
508.079	680
508.426	680
508.774	680
509.121	680
509.468	680
509.815	679
510.162	679
510.509	678
510.856	678
511.203	677
511.550	676
511.897	675
512.244	675
512.591	674
512.938	674
513.284	673
513.631	672
513.978	671
514.324	670
514.671	668
515.018	667
515.364	665
515.711	664
516.057	663
516.403	662
516.750	661
517.096	659
517.443	657
517.789	655
518.135	652
518.481	652
518.827	650
519.173	648
519.519	647
519.865	645
520.211	644
520.557	643
520.903	642
521.249	642
521.595	641
521.941	641
522.287	640
522.632	640
522.978	640
523.324	640
523.669	640
524.015	641
524.360	643
524.706	645
525.051	648
525.397	652
525.742	656
526.087	660
526.433	664
526.778	667
527.123	670
527.468	672
527.813	674
528.158	677
528.504	680
528.849	683
529.193	688
529.538	694
529.883	701
530.228	709
530.573	718
530.918	728
531.263	737
531.607	746
531.952	754
532.296	761
532.641	766
532.986	771
533.330	776
533.675	780
534.019	786
534.363	793
534.708	802
535.052	812
535.396	822
535.741	832
536.085	841
536.429	850
536.773	857
537.117	863
537.461	868
537.805	873
538.149	878
538.493	884
538.837	890
539.181	897
539.524	905
539.868	915
540.212	927
540.556	938
540.899	951
541.243	962
541.586	972
541.930	979
542.273	985
542.617	990
542.960	995
543.304	1001
543.647	1009
543.990	1019
544.333	1031
544.677	1043
545.020	1054
545.363	1064
545.706	1071
546.049	1078
546.392	1082
546.735	1084
547.078	1085
547.421	1087
547.764	1089
548.106	1093
548.449	1097
548.792	1104
549.135	1112
549.477	1123
549.820	1133
550.162	1142
550.505	1149
550.847	1155
551.190	1160
551.532	1163
551.875	1167
552.217	1172
552.559	1178
552.901	1186
553.244	1194
553.586	1204
553.928	1214
554.270	1223
554.612	1230
554.954	1237
555.296	1242
555.638	1248
555.980	1254
556.322	1262
556.663	1271
557.005	1284
557.347	1300
557.689	1317
558.030	1334
558.372	1350
558.713	1364
559.055	1378
559.396	1392
559.738	1406
560.079	1422
560.421	1440
560.762	1460
561.103	1481
561.444	1506
561.786	1531
562.127	1558
562.468	1586
562.809	1617
563.150	1652
563.491	1689
563.832	1731
564.173	1778
564.514	1832
564.855	1896
565.195	1974
565.536	2068
565.877	2176
566.218	2299
566.558	2438
566.899	2591
567.239	2756
567.580	2929
567.920	3107
568.261	3287
568.601	3471
568.941	3663
569.282	3860
569.622	4065
569.962	4278
570.302	4506
570.643	4742
570.983	4979
571.323	5210
571.663	5433
572.003	5646
572.343	5846
572.683	6035
573.022	6228
573.362	6431
573.702	6642
574.042	6853
574.381	7057
574.721	7250
575.061	7437
575.400	7607
575.740	7759
576.079	7895
576.419	8031
576.758	8184
577.097	8365
577.437	8563
577.776	8773
578.115	8995
578.454	9219
578.794	9424
579.133	9585
579.472	9699
579.811	9768
580.150	9796
580.489	9793
580.828	9776
581.167	9761
581.505	9753
581.844	9750
582.183	9747
582.522	9750
582.860	9760
583.199	9768
583.538	9763
583.876	9727
584.215	9651
584.553	9529
584.891	9365
585.230	9160
585.568	8934
585.906	8704
586.245	8496
586.583	8317
586.921	8170
587.259	8036
587.597	7901
587.935	7760
588.273	7617
588.611	7484
588.949	7367
589.287	7269
589.625	7194
589.963	7136
590.300	7091
590.638	7049
590.976	7002
591.313	6946
591.651	6893
591.989	6846
592.326	6810
592.664	6779
593.001	6754
593.338	6741
593.676	6735
594.013	6742
594.350	6771
594.687	6817
595.025	6868
595.362	6915
595.699	6951
596.036	6974
596.373	6984
596.710	6974
597.047	6954
597.384	6926
597.720	6895
598.057	6871
598.394	6855
598.731	6847
599.067	6851
599.404	6866
599.741	6899
600.077	6941
600.414	6989
600.750	7039
601.087	7078
601.423	7099
601.759	7103
602.096	7094
602.432	7077
602.768	7049
603.104	7008
603.440	6957
603.776	6902
604.112	6842
604.448	6782
604.784	6717
605.120	6647
605.456	6580
605.792	6510
606.128	6437
606.463	6361
606.799	6285
607.135	6215
607.470	6147
607.806	6079
608.142	6012
608.477	5947
608.812	5886
609.148	5823
609.483	5758
609.819	5691
610.154	5627
610.489	5567
610.824	5516
611.159	5473
611.494	5430
611.830	5391
612.165	5354
612.500	5312
612.834	5262
613.169	5205
613.504	5142
613.839	5072
614.174	4993
614.509	4913
614.843	4833
615.178	4757
615.512	4683
615.847	4609
616.182	4536
616.516	4462
616.850	4383
617.185	4301
617.519	4218
617.853	4129
618.188	4037
618.522	3953
618.856	3881
619.190	3819
619.524	3765
619.858	3722
620.192	3688
620.526	3658
620.860	3628
621.194	3600
621.528	3572
621.862	3543
622.195	3509
622.529	3472
622.863	3435
623.196	3397
623.530	3359
623.864	3321
624.197	3282
624.530	3245
624.864	3211
625.197	3175
625.531	3134
625.864	3085
626.197	3033
626.530	2977
626.863	2913
627.196	2844
627.529	2774
627.862	2705
628.195	2636
628.528	2569
628.861	2504
629.194	2446
629.527	2390
629.860	2334
630.192	2280
630.525	2230
630.858	2182
631.190	2138
631.523	2095
631.855	2055
632.188	2020
632.520	1988
632.852	1957
633.185	1925
633.517	1895
633.849	1867
634.182	1842
634.514	1818
634.846	1796
635.178	1777
635.510	1760
635.842	1745
636.174	1730
636.506	1716
636.837	1702
637.169	1687
637.501	1672
637.833	1655
638.164	1636
638.496	1615
638.828	1591
639.159	1564
639.491	1535
639.822	1504
640.154	1474
640.485	1444
640.816	1414
641.147	1384
641.479	1356
641.810	1329
642.141	1302
642.472	1276
642.803	1250
643.134	1225
643.465	1204
643.796	1187
644.127	1175
644.458	1169
644.789	1169
645.119	1176
645.450	1187
645.781	1200
646.111	1212
646.442	1223
646.773	1232
647.103	1238
647.433	1244
647.764	1250
648.094	1259
648.425	1269
648.755	1281
649.085	1296
649.415	1311
649.745	1327
650.075	1343
650.405	1361
650.735	1400
651.065	1681
651.395	2558
651.725	4035
652.055	5959
652.385	8195
652.715	10653
653.044	13246
653.374	15622
653.704	17447
654.033	18723
654.363	19602
654.692	20187
655.022	20572
655.351	20826
655.680	20985
656.010	21072
656.339	21111
656.668	21122
656.997	21118
657.326	21103
657.655	21060
657.984	20771
658.313	19881
658.642	18386
658.971	16439
659.300	14178
659.629	11695
659.958	9078
660.286	6680
660.615	4837
660.944	3547
661.272	2656
661.601	2058
661.929	1661
662.258	1391
662.586	1214
662.915	1106
663.243	1044
663.571	1009
663.899	988
664.228	974
664.556	966
664.884	960
665.212	956
665.540	953
665.868	952
666.196	952
666.524	951
666.852	952
667.179	956
667.507	964
667.835	975
668.162	990
668.490	1007
668.818	1028
669.145	1050
669.473	1073
669.800	1093
670.127	1111
670.455	1126
670.782	1138
671.109	1150
671.436	1159
671.764	1167
672.091	1173
672.418	1179
672.745	1183
673.072	1188
673.399	1194
673.726	1200
674.053	1205
674.379	1207
674.706	1206
675.033	1207
675.359	1205
675.686	1203
676.013	1203
676.339	1204
676.666	1208
676.992	1218
677.318	1230
677.645	1245
677.971	1259
678.297	1272
678.624	1284
678.950	1295
679.276	1306
679.602	1316
679.928	1327
680.254	1341
680.580	1358
680.906	1380
681.232	1407
681.558	1435
681.883	1463
682.209	1489
682.535	1513
682.860	1535
683.186	1554
683.511	1568
683.837	1578
684.162	1585
684.488	1591
684.813	1598
685.138	1604
685.464	1609
685.789	1613
686.114	1618
686.439	1624
686.764	1630
687.089	1635
687.414	1635
687.739	1630
688.064	1621
688.389	1609
688.714	1594
689.039	1579
689.363	1563
689.688	1544
690.013	1527
690.337	1511
690.662	1499
690.986	1488
691.311	1477
691.635	1465
691.959	1454
692.284	1447
692.608	1446
692.932	1449
693.256	1454
693.580	1460
693.904	1469
694.228	1478
694.552	1487
694.876	1491
695.200	1491
695.524	1485
695.848	1475
696.172	1464
696.495	1452
696.819	1439
697.143	1426
697.466	1413
697.790	1402
698.113	1394
698.437	1390
698.760	1390
699.083	1389
699.407	1385
699.730	1378
700.053	1367
700.376	1352
700.699	1330
701.022	1303
701.345	1274
701.668	1246
701.991	1223
702.314	1208
702.637	1201
702.960	1205
703.283	1218
703.605	1240
703.928	1270
704.251	1304
704.573	1338
704.896	1369
705.218	1394
705.540	1414
705.863	1430
706.185	1443
706.507	1455
706.830	1466
707.152	1478
707.474	1490
707.796	1503
708.118	1518
708.440	1531
708.762	1543
709.084	1553
709.406	1558
709.728	1559
710.049	1556
710.371	1549
710.693	1539
711.014	1528
711.336	1517
711.658	1508
711.979	1499
712.301	1492
712.622	1483
712.943	1474
713.265	1461
713.586	1448
713.907	1436
714.228	1425
714.549	1417
714.870	1410
715.191	1408
715.512	1408
715.833	1406
716.154	1402
716.475	1396
716.796	1388
717.117	1375
717.437	1360
717.758	1343
718.078	1326
718.399	1308
718.719	1293
719.040	1280
719.360	1270
719.681	1262
720.001	1257
720.321	1255
720.642	1253
720.962	1254
721.282	1258
721.602	1262
721.922	1267
722.242	1273
722.562	1281
722.882	1291
723.202	1300
723.521	1308
723.841	1317
724.161	1326
724.481	1335
724.800	1344
725.120	1356
725.439	1370
725.759	1387
726.078	1405
726.398	1427
726.717	1456
727.036	1487
727.355	1520
727.675	1552
727.994	1583
728.313	1613
728.632	1638
728.951	1659
729.270	1677
729.589	1694
729.908	1715
730.226	1739
730.545	1765
730.864	1793
731.182	1823
731.501	1854
731.820	1884
732.138	1909
732.457	1931
732.775	1952
733.093	1968
733.412	1977
733.730	1979
734.048	1974
734.367	1966
734.685	1953
735.003	1940
735.321	1928
735.639	1918
735.957	1910
736.275	1903
736.593	1893
736.910	1878
737.228	1854
737.546	1826
737.863	1792
738.181	1755
738.499	1716
738.816	1678
739.134	1641
739.451	1603
739.768	1564
740.086	1528
740.403	1494
740.720	1462
741.038	1433
741.355	1404
741.672	1376
741.989	1347
742.306	1317
742.623	1286
742.940	1255
743.257	1227
743.573	1203
743.890	1183
744.207	1169
744.523	1158
744.840	1151
745.157	1147
745.473	1147
745.790	1151
746.106	1160
746.422	1174
746.739	1191
747.055	1211
747.371	1234
747.687	1258
748.004	1281
748.320	1301
748.636	1319
748.952	1337
749.268	1355
749.584	1372
749.899	1387
750.215	1403
750.531	1422
750.847	1442
751.162	1463
751.478	1483
751.793	1504
752.109	1526
752.424	1550
752.740	1574
753.055	1601
753.370	1634
753.686	1672
754.001	1713
754.316	1756
754.631	1802
754.946	1850
755.261	1901
755.576	1950
755.891	1997
756.206	2044
756.521	2095
756.836	2145
757.150	2194
757.465	2236
757.780	2273
758.094	2304
758.409	2327
758.723	2343
759.038	2349
759.352	2349
759.667	2343
759.981	2331
760.295	2320
760.609	2311
760.923	2306
761.238	2303
761.552	2300
761.866	2298
762.180	2294
762.493	2282
762.807	2258
763.121	2221
763.435	2175
763.749	2126
764.062	2079
764.376	2040
764.689	2013
765.003	1999
765.316	1997
765.630	2004
765.943	2016
766.257	2029
766.570	2041
766.883	2044
767.196	2040
767.509	2027
767.822	2008
768.135	1983
768.448	1956
768.761	1928
769.074	1903
769.387	1885
769.700	1874
770.013	1867
770.325	1861
770.638	1853
770.950	1838
771.263	1813
771.575	1779
771.888	1735
772.200	1684
772.513	1629
772.825	1572
773.137	1513
773.449	1454
773.761	1397
774.074	1345
774.386	1299
774.698	1260
775.010	1228
775.321	1206
775.633	1191
775.945	1182
776.257	1177
776.568	1176
776.880	1180
777.192	1189
777.503	1202
777.815	1218
778.126	1239
778.438	1264
778.749	1291
779.060	1318
779.372	1342
779.683	1366
779.994	1388
780.305	1405
780.616	1417
780.927	1424
781.238	1427
781.549	1424
781.860	1415
782.171	1402
782.481	1388
782.792	1374
783.103	1360
783.413	1345
783.724	1329
784.034	1313
784.345	1299
784.655	1285
784.966	1272
785.276	1258
785.586	1244
785.896	1230
786.207	1216
786.517	1200
786.827	1185
787.137	1171
787.447	1157
787.757	1144
788.066	1131
788.376	1119
788.686	1107
788.996	1094
789.305	1081
789.615	1071
789.925	1066
790.234	1064
790.544	1067
790.853	1073
791.162	1078
791.472	1084
791.781	1086
792.090	1084
792.399	1078
792.708	1068
793.017	1056
793.326	1045
793.635	1035
793.944	1026
794.253	1018
794.562	1012
794.871	1009
795.179	1007
795.488	1004
795.797	999
796.105	990
796.414	976
796.722	956
797.031	930
797.339	900
797.647	866
797.956	830
798.264	796
798.572	769
798.880	748
799.188	732
799.496	721
799.804	712
800.112	706
800.420	701
800.728	695
801.035	688
801.343	680
801.651	674
801.958	672
802.266	675
802.573	680
802.881	688
803.188	697
803.496	708
803.803	718
804.110	727
804.417	735
804.724	743
805.032	749
805.339	755
805.646	759
805.953	762
806.259	762
806.566	761
806.873	758
807.180	754
807.486	750
807.793	746
808.100	738
808.406	726
808.713	710
809.019	691
809.326	672
809.632	653
809.938	636
810.244	621
810.551	608
810.857	597
811.163	587
811.469	577
811.775	566
812.081	555
812.387	544
812.692	536
812.998	530
813.304	525
813.610	521
813.915	518
814.221	515
814.526	513
814.832	511
815.137	509
815.443	506
815.748	501
816.053	494
816.358	488
816.664	482
816.969	476
817.274	471
817.579	467
817.884	465
818.189	464
818.493	464
818.798	463
819.103	460
819.408	455
819.712	450
820.017	445
820.321	439
820.626	433
820.930	428
821.235	424
821.539	423
821.843	423
822.148	424
822.452	425
822.756	425
823.060	423
823.364	421
823.668	418
823.972	413
824.276	409
824.580	406
824.883	404
825.187	404
825.491	404
825.795	405
826.098	405
826.402	404
826.705	403
827.008	400
827.312	396
827.615	389
827.918	381
828.222	372
828.525	363
828.828	355
829.131	346
829.434	337
829.737	329
830.040	323
830.343	317
830.645	313
830.948	308
831.251	304
831.553	300
831.856	297
832.159	294
832.461	290
832.764	286
833.066	282
833.368	279
833.671	277
833.973	275
834.275	273
834.577	272
834.879	269
835.181	267
835.483	264
835.785	261
836.087	256
836.389	251
836.690	245
836.992	238
837.294	231
837.595	224
837.897	216
838.198	208
838.500	201
838.801	195
839.103	190
839.404	185
839.705	181
840.006	178
840.307	175
840.608	173
840.910	171
841.210	170
841.511	169
841.812	167
842.113	165
842.414	163
842.715	160
843.015	157
843.316	154
843.616	151
843.917	148
844.217	145
844.518	143
844.818	141
845.118	141
845.419	140
845.719	139
846.019	138
846.319	137
846.619	137
846.919	136
847.219	136
847.519	135
847.819	134
848.118	135
848.418	136
848.718	141
849.017	147
849.317	157
849.616	168
849.916	182
850.215	196
850.515	212
850.814	228
851.113	242
851.412	255
851.712	266
852.011	277
852.310	288
852.609	297
852.908	304
853.206	312
853.505	318
853.804	324
854.103	329
854.401	332
854.700	334
854.999	333
855.297	329
855.595	322
855.894	313
856.192	301
856.491	289
856.789	275
857.087	261
857.385	247
857.683	235
857.981	224
858.279	214
858.577	204
858.875	195
859.173	189
859.471	183
859.768	179
860.066	175
860.363	171
860.661	168
860.959	166
861.256	164
861.553	162
861.851	159
862.148	156
862.445	153
862.742	150
863.039	147
863.337	145
863.634	144
863.931	143
864.227	142
864.524	142
864.821	143
865.118	142
865.415	141
865.711	140
866.008	137
866.304	135
866.601	132
866.897	130
867.194	128
867.490	127
867.786	127
868.082	126
868.379	127
868.675	127
868.971	127
869.267	127
869.563	127
869.859	127
870.154	127
870.450	126
870.746	126
871.042	125
871.337	124
871.633	125
871.928	125
872.224	126
872.519	128
872.815	128
873.110	129
873.405	129
873.700	128
873.995	128
874.291	128
874.586	129
874.881	130
875.175	131
875.470	133
875.765	136
876.060	138
876.355	141
876.649	143
876.944	146
877.238	148
877.533	150
877.827	152
878.122	153
878.416	153
878.710	153
879.005	153
879.299	152
879.593	151
879.887	151
880.181	150
880.475	149
880.769	148
881.063	146
881.356	145
881.650	142
881.944	141
882.238	118
882.531	110
882.825	111
883.118	114
883.412	112
883.705	110
883.998	115
884.291	119
884.585	119
884.878	130
>>>>>>>>>> END of Data <<<<<<<<<<