Date	2021年06月15日火曜日 04時26分22秒
Spectrometers	USB2+H05879
ダーク	使用
リファレンス	使用
積分時間[msec]	10
平均回数	280
ｽﾑｰｼﾞﾝｸﾞ	10
Electrical Dark	USE
ピクセル数	2048
計測モード	吸光度
保存開始波長[nm]	190.664
保存終了波長[nm]	884.878
保存ﾋﾟｯﾁ波長[nm]	全波長

>>>>>>>>>> Data Start <<<<<<<<<<<<
190.664	0.000000
191.040	0.000000
191.415	0.000000
191.791	-2.340163
192.166	-0.616816
192.542	-0.787431
192.917	0.000000
193.293	-0.525259
193.668	-0.322732
194.044	-0.959284
194.419	0.000000
194.794	-1.399319
195.170	-1.320223
195.545	-1.234488
195.920	-1.112117
196.296	-0.990279
196.671	-0.835741
197.046	-0.674178
197.421	-0.623336
197.796	-0.624257
198.171	-0.591802
198.546	-0.550797
198.922	-0.503577
199.297	-0.484479
199.672	-0.465556
200.047	-0.440692
200.422	-0.411902
200.796	-0.399471
201.171	-0.381578
201.546	-0.385338
201.921	-0.376533
202.296	-0.367488
202.671	-0.344139
203.045	-0.322374
203.420	-0.306821
203.795	-0.289288
204.170	-0.286302
204.544	-0.277677
204.919	-0.278416
205.294	-0.272040
205.668	-0.251895
206.043	-0.242506
206.417	-0.246238
206.792	-0.235488
207.166	-0.227097
207.541	-0.215673
207.915	-0.215962
208.289	-0.202044
208.664	-0.202144
209.038	-0.203636
209.412	-0.186805
209.787	-0.174244
210.161	-0.165306
210.535	-0.162286
210.909	-0.145902
211.284	-0.140926
211.658	-0.150074
212.032	-0.153089
212.406	-0.163912
212.780	-0.162889
213.154	-0.168943
213.528	-0.175660
213.902	-0.172905
214.276	-0.164669
214.650	-0.166121
215.024	-0.160154
215.398	-0.160508
215.772	-0.157703
216.145	-0.158296
216.519	-0.150271
216.893	-0.146450
217.267	-0.152220
217.640	-0.155526
218.014	-0.140361
218.388	-0.135263
218.761	-0.150426
219.135	-0.146758
219.508	-0.146367
219.882	-0.150311
220.256	-0.145287
220.629	-0.140190
221.003	-0.141103
221.376	-0.136855
221.749	-0.139443
222.123	-0.144482
222.496	-0.147248
222.869	-0.146385
223.243	-0.141165
223.616	-0.137253
223.989	-0.141844
224.362	-0.133787
224.736	-0.135073
225.109	-0.129854
225.482	-0.129454
225.855	-0.134371
226.228	-0.138906
226.601	-0.128396
226.974	-0.123672
227.347	-0.113933
227.720	-0.105306
228.093	-0.104562
228.466	-0.115536
228.839	-0.110521
229.212	-0.116265
229.585	-0.128373
229.957	-0.125509
230.330	-0.118831
230.703	-0.110111
231.076	-0.116877
231.448	-0.117359
231.821	-0.117856
232.194	-0.124949
232.566	-0.129619
232.939	-0.137749
233.311	-0.141284
233.684	-0.141831
234.056	-0.142114
234.429	-0.142099
234.801	-0.144744
235.174	-0.144560
235.546	-0.151548
235.918	-0.156141
236.291	-0.145309
236.663	-0.136451
237.035	-0.134855
237.408	-0.119885
237.780	-0.115563
238.152	-0.118684
238.524	-0.128216
238.896	-0.125242
239.268	-0.124985
239.641	-0.122603
240.013	-0.113536
240.385	-0.104527
240.757	-0.101033
241.129	-0.100105
241.500	-0.102547
241.872	-0.096474
242.244	-0.096400
242.616	-0.101904
242.988	-0.098597
243.360	-0.084261
243.731	-0.071534
244.103	-0.077251
244.475	-0.088634
244.847	-0.082435
245.218	-0.076391
245.590	-0.071124
245.961	-0.072183
246.333	-0.070016
246.705	-0.067715
247.076	-0.062611
247.448	-0.058353
247.819	-0.063713
248.190	-0.057538
248.562	-0.059952
248.933	-0.055796
249.305	-0.054823
249.676	-0.052072
250.047	-0.058859
250.418	-0.053406
250.790	-0.055434
251.161	-0.061490
251.532	-0.069542
251.903	-0.071198
252.274	-0.064840
252.645	-0.062265
253.016	-0.068751
253.387	-0.072853
253.758	-0.068148
254.129	-0.067764
254.500	-0.064305
254.871	-0.065908
255.242	-0.071330
255.613	-0.075432
255.984	-0.078989
256.355	-0.072665
256.725	-0.068484
257.096	-0.070017
257.467	-0.072889
257.838	-0.070588
258.208	-0.072918
258.579	-0.068036
258.949	-0.069395
259.320	-0.057568
259.690	-0.049623
260.061	-0.043545
260.431	-0.040966
260.802	-0.039391
261.172	-0.037975
261.543	-0.033773
261.913	-0.035338
262.283	-0.035869
262.654	-0.037869
263.024	-0.040741
263.394	-0.036013
263.764	-0.033532
264.135	-0.033603
264.505	-0.036178
264.875	-0.025960
265.245	-0.027627
265.615	-0.024365
265.985	-0.018281
266.355	-0.014365
266.725	-0.013209
267.095	-0.019096
267.465	-0.019415
267.835	-0.026970
268.205	-0.035002
268.575	-0.031912
268.944	-0.024217
269.314	-0.031268
269.684	-0.023671
270.054	-0.033224
270.423	-0.028746
270.793	-0.017999
271.163	-0.014938
271.532	-0.018453
271.902	-0.014771
272.271	-0.016109
272.641	-0.021962
273.010	-0.023098
273.380	-0.023370
273.749	-0.028257
274.119	-0.030031
274.488	-0.020794
274.857	-0.018316
275.227	-0.016906
275.596	-0.010505
275.965	-0.002213
276.335	0.001157
276.704	-0.004358
277.073	-0.004211
277.442	-0.004570
277.811	-0.000186
278.180	0.003757
278.549	0.001979
278.918	0.001772
279.287	0.006325
279.656	0.005157
280.025	0.006527
280.394	0.000377
280.763	0.004640
281.132	0.008938
281.501	0.013373
281.869	0.011445
282.238	0.006250
282.607	0.001096
282.976	-0.001131
283.344	0.000694
283.713	-0.003221
284.081	-0.003985
284.450	0.001326
284.819	0.009542
285.187	0.011692
285.556	0.016856
285.924	0.008885
286.292	0.005603
286.661	0.001490
287.029	-0.004955
287.398	0.003447
287.766	0.001197
288.134	0.005956
288.502	0.005749
288.871	0.006447
289.239	0.011025
289.607	0.010915
289.975	0.011695
290.343	0.019741
290.711	0.020791
291.079	0.016106
291.447	0.019923
291.815	0.021418
292.183	0.019708
292.551	0.017897
292.919	0.015200
293.287	0.016947
293.655	0.020645
294.022	0.023422
294.390	0.030282
294.758	0.037613
295.126	0.032721
295.493	0.041077
295.861	0.051009
296.229	0.046548
296.596	0.045466
296.964	0.042603
297.331	0.046223
297.699	0.053525
298.066	0.053343
298.434	0.057474
298.801	0.059614
299.168	0.058711
299.536	0.056925
299.903	0.061695
300.270	0.065241
300.638	0.072047
301.005	0.083448
301.372	0.085129
301.739	0.088564
302.106	0.091227
302.473	0.100580
302.840	0.108507
303.207	0.122653
303.574	0.128973
303.941	0.146780
304.308	0.159994
304.675	0.170819
305.042	0.183589
305.409	0.199952
305.776	0.212282
306.143	0.229161
306.509	0.250024
306.876	0.280670
307.243	0.302843
307.610	0.326679
307.976	0.346696
308.343	0.373385
308.709	0.393804
309.076	0.425386
309.442	0.453567
309.809	0.481650
310.175	0.506608
310.542	0.530301
310.908	0.550060
311.275	0.572440
311.641	0.595186
312.007	0.624052
312.373	0.651042
312.740	0.672045
313.106	0.690064
313.472	0.718043
313.838	0.741034
314.204	0.762723
314.570	0.772599
314.936	0.790731
315.302	0.806544
315.668	0.822738
316.034	0.840799
316.400	0.863905
316.766	0.878048
317.132	0.896706
317.498	0.909366
317.864	0.918026
318.230	0.930529
318.595	0.941986
318.961	0.953137
319.327	0.964877
319.692	0.970669
320.058	0.976578
320.424	0.986906
320.789	0.995724
321.155	1.002337
321.520	1.009605
321.886	1.017659
322.251	1.025051
322.616	1.032432
322.982	1.038325
323.347	1.044624
323.712	1.051251
324.078	1.054185
324.443	1.057677
324.808	1.058521
325.173	1.062134
325.539	1.066519
325.904	1.068394
326.269	1.071477
326.634	1.073295
326.999	1.075195
327.364	1.076924
327.729	1.079691
328.094	1.080963
328.459	1.082317
328.823	1.083466
329.188	1.085302
329.553	1.085098
329.918	1.087563
330.283	1.088752
330.647	1.089379
331.012	1.089323
331.377	1.087849
331.741	1.086546
332.106	1.087316
332.470	1.088065
332.835	1.087522
333.199	1.087288
333.564	1.087638
333.928	1.087411
334.293	1.088587
334.657	1.088244
335.021	1.088964
335.386	1.088807
335.750	1.088555
336.114	1.088105
336.478	1.087414
336.843	1.086401
337.207	1.086344
337.571	1.086616
337.935	1.086246
338.299	1.085822
338.663	1.085847
339.027	1.085656
339.391	1.086060
339.755	1.085685
340.119	1.084903
340.483	1.085252
340.846	1.085790
341.210	1.085955
341.574	1.086267
341.938	1.086332
342.301	1.086583
342.665	1.086703
343.029	1.086858
343.392	1.087363
343.756	1.087974
344.119	1.088948
344.483	1.090020
344.846	1.090488
345.210	1.090525
345.573	1.090691
345.937	1.091364
346.300	1.092154
346.663	1.093258
347.027	1.094446
347.390	1.095102
347.753	1.095957
348.116	1.096544
348.479	1.096953
348.843	1.097214
349.206	1.097237
349.569	1.097193
349.932	1.097784
350.295	1.098076
350.658	1.098712
351.021	1.099926
351.383	1.100611
351.746	1.101097
352.109	1.101520
352.472	1.102021
352.835	1.102526
353.197	1.103150
353.560	1.103796
353.923	1.104004
354.285	1.104428
354.648	1.104519
355.011	1.104913
355.373	1.105933
355.736	1.106641
356.098	1.107154
356.461	1.107848
356.823	1.108520
357.185	1.109535
357.548	1.110254
357.910	1.110649
358.272	1.111063
358.635	1.110384
358.997	1.110551
359.359	1.111386
359.721	1.111674
360.083	1.112408
360.445	1.113138
360.807	1.113829
361.169	1.114311
361.531	1.115197
361.893	1.115657
362.255	1.116167
362.617	1.116456
362.979	1.116885
363.341	1.116856
363.703	1.117546
364.064	1.118348
364.426	1.119204
364.788	1.119566
365.149	1.120004
365.511	1.120798
365.873	1.121631
366.234	1.122426
366.596	1.123090
366.957	1.123160
367.319	1.123756
367.680	1.124292
368.042	1.124322
368.403	1.124850
368.764	1.125163
369.126	1.125160
369.487	1.125456
369.848	1.125370
370.209	1.125966
370.570	1.126063
370.931	1.126677
371.293	1.126756
371.654	1.127120
372.015	1.127401
372.376	1.127996
372.737	1.128563
373.098	1.128637
373.458	1.128654
373.819	1.129573
374.180	1.130750
374.541	1.131191
374.902	1.131646
375.263	1.131979
375.623	1.132285
375.984	1.132814
376.345	1.133255
376.705	1.133986
377.066	1.134792
377.426	1.135477
377.787	1.135815
378.147	1.136284
378.508	1.136542
378.868	1.137183
379.228	1.137538
379.589	1.138041
379.949	1.138134
380.309	1.138372
380.670	1.138967
381.030	1.139443
381.390	1.139487
381.750	1.138869
382.110	1.139022
382.470	1.139136
382.830	1.139460
383.190	1.139719
383.550	1.139811
383.910	1.140137
384.270	1.140050
384.630	1.139882
384.990	1.140105
385.350	1.140253
385.709	1.140469
386.069	1.140739
386.429	1.140519
386.788	1.140573
387.148	1.140383
387.508	1.140584
387.867	1.140440
388.227	1.140086
388.586	1.139806
388.946	1.139861
389.305	1.139851
389.665	1.139966
390.024	1.139790
390.383	1.139510
390.743	1.139304
391.102	1.138841
391.461	1.138726
391.820	1.138752
392.179	1.138122
392.539	1.137626
392.898	1.137440
393.257	1.137087
393.616	1.136667
393.975	1.136348
394.334	1.136119
394.693	1.135748
395.051	1.135376
395.410	1.135174
395.769	1.135052
396.128	1.134604
396.487	1.134000
396.845	1.133597
397.204	1.132761
397.563	1.131912
397.921	1.131226
398.280	1.130333
398.638	1.129503
398.997	1.128502
399.355	1.127350
399.714	1.126624
400.072	1.125673
400.431	1.124509
400.789	1.123483
401.147	1.122530
401.506	1.121420
401.864	1.119980
402.222	1.118634
402.580	1.116998
402.938	1.115722
403.297	1.114343
403.655	1.113262
404.013	1.111737
404.371	1.110434
404.729	1.109139
405.087	1.107885
405.444	1.106556
405.802	1.105072
406.160	1.103860
406.518	1.102469
406.876	1.101114
407.233	1.099779
407.591	1.098334
407.949	1.097130
408.306	1.095726
408.664	1.094207
409.022	1.092783
409.379	1.091266
409.737	1.089683
410.094	1.088066
410.451	1.086269
410.809	1.084589
411.166	1.082938
411.523	1.081582
411.881	1.079854
412.238	1.078302
412.595	1.076568
412.952	1.074802
413.310	1.073227
413.667	1.071648
414.024	1.070089
414.381	1.068434
414.738	1.066665
415.095	1.064788
415.452	1.062859
415.809	1.060811
416.165	1.058856
416.522	1.056761
416.879	1.054855
417.236	1.052666
417.593	1.050713
417.949	1.048489
418.306	1.046413
418.663	1.044618
419.019	1.042659
419.376	1.040614
419.732	1.038457
420.089	1.036717
420.445	1.034670
420.802	1.033033
421.158	1.031099
421.514	1.028905
421.871	1.026783
422.227	1.024716
422.583	1.022995
422.939	1.020796
423.295	1.018845
423.652	1.016768
424.008	1.014716
424.364	1.012382
424.720	1.010510
425.076	1.008329
425.432	1.006091
425.788	1.003827
426.143	1.001263
426.499	0.998564
426.855	0.996257
427.211	0.993815
427.567	0.991305
427.922	0.989043
428.278	0.986066
428.634	0.983631
428.989	0.981411
429.345	0.979249
429.700	0.977002
430.056	0.974813
430.411	0.972610
430.767	0.970242
431.122	0.967740
431.478	0.965300
431.833	0.962958
432.188	0.960215
432.543	0.957655
432.899	0.955124
433.254	0.952175
433.609	0.949382
433.964	0.946822
434.319	0.943843
434.674	0.941043
435.029	0.938122
435.384	0.935311
435.739	0.932703
436.094	0.930044
436.449	0.927368
436.804	0.924758
437.158	0.922099
437.513	0.919085
437.868	0.916182
438.223	0.913260
438.577	0.910444
438.932	0.907893
439.287	0.905128
439.641	0.902611
439.996	0.899806
440.350	0.897162
440.704	0.894616
441.059	0.892017
441.413	0.889244
441.768	0.886533
442.122	0.883892
442.476	0.881297
442.830	0.878616
443.185	0.876183
443.539	0.873589
443.893	0.871030
444.247	0.868176
444.601	0.865487
444.955	0.862780
445.309	0.860035
445.663	0.857323
446.017	0.854723
446.371	0.851707
446.724	0.848866
447.078	0.845973
447.432	0.843235
447.786	0.840315
448.139	0.837493
448.493	0.834671
448.847	0.831868
449.200	0.828944
449.554	0.826195
449.907	0.823401
450.261	0.820523
450.614	0.817701
450.968	0.814818
451.321	0.811814
451.674	0.809029
452.027	0.806019
452.381	0.803190
452.734	0.800442
453.087	0.797553
453.440	0.794573
453.793	0.791813
454.146	0.788912
454.499	0.786174
454.852	0.783286
455.205	0.780466
455.558	0.777823
455.911	0.775070
456.264	0.772303
456.617	0.769822
456.970	0.767263
457.322	0.764831
457.675	0.762481
458.028	0.760075
458.380	0.757844
458.733	0.755497
459.086	0.753193
459.438	0.751126
459.791	0.748809
460.143	0.746503
460.496	0.744214
460.848	0.741814
461.200	0.739417
461.553	0.737171
461.905	0.734857
462.257	0.732554
462.609	0.730375
462.961	0.728151
463.314	0.726058
463.666	0.723993
464.018	0.721759
464.370	0.719702
464.722	0.717598
465.074	0.715590
465.426	0.713666
465.777	0.711699
466.129	0.709861
466.481	0.708023
466.833	0.706124
467.184	0.704326
467.536	0.702298
467.888	0.700430
468.239	0.698361
468.591	0.696289
468.943	0.693982
469.294	0.691668
469.646	0.689505
469.997	0.687157
470.348	0.684835
470.700	0.682648
471.051	0.680486
471.402	0.678531
471.754	0.676510
472.105	0.674694
472.456	0.672837
472.807	0.671070
473.158	0.669252
473.509	0.667529
473.860	0.665822
474.211	0.664197
474.562	0.662523
474.913	0.660936
475.264	0.659193
475.615	0.657677
475.966	0.656063
476.316	0.654439
476.667	0.652828
477.018	0.651212
477.368	0.649680
477.719	0.648150
478.070	0.646561
478.420	0.644993
478.771	0.643418
479.121	0.641840
479.472	0.640237
479.822	0.638614
480.172	0.636883
480.523	0.635239
480.873	0.633290
481.223	0.631098
481.573	0.628858
481.924	0.626717
482.274	0.624626
482.624	0.622786
482.974	0.621151
483.324	0.619805
483.674	0.618721
484.024	0.617623
484.374	0.616541
484.724	0.615538
485.073	0.614539
485.423	0.613505
485.773	0.612507
486.123	0.611512
486.472	0.610494
486.822	0.609440
487.172	0.608447
487.521	0.607470
487.871	0.606483
488.220	0.605536
488.570	0.604502
488.919	0.603241
489.268	0.601755
489.618	0.600154
489.967	0.598206
490.316	0.596042
490.666	0.593695
491.015	0.591421
491.364	0.589346
491.713	0.587414
492.062	0.585538
492.411	0.583810
492.760	0.582131
493.109	0.580487
493.458	0.578769
493.807	0.577187
494.156	0.575590
494.505	0.573891
494.853	0.572240
495.202	0.570496
495.551	0.568868
495.900	0.567262
496.248	0.565570
496.597	0.563901
496.945	0.562294
497.294	0.560751
497.642	0.559187
497.991	0.557533
498.339	0.555862
498.688	0.554340
499.036	0.552935
499.384	0.551498
499.732	0.550007
500.081	0.548503
500.429	0.546911
500.777	0.545454
501.125	0.543973
501.473	0.542519
501.821	0.541057
502.169	0.539613
502.517	0.538263
502.865	0.536870
503.213	0.535424
503.561	0.534102
503.908	0.532776
504.256	0.531333
504.604	0.529942
504.952	0.528516
505.299	0.527162
505.647	0.525810
505.994	0.524396
506.342	0.522905
506.689	0.521473
507.037	0.520081
507.384	0.518736
507.732	0.517410
508.079	0.516117
508.426	0.514798
508.774	0.513434
509.121	0.512214
509.468	0.511021
509.815	0.509778
510.162	0.508497
510.509	0.507247
510.856	0.506017
511.203	0.504790
511.550	0.503617
511.897	0.502454
512.244	0.501257
512.591	0.500043
512.938	0.498862
513.284	0.497605
513.631	0.496406
513.978	0.495149
514.324	0.493946
514.671	0.492692
515.018	0.491449
515.364	0.490156
515.711	0.488931
516.057	0.487717
516.403	0.486462
516.750	0.485183
517.096	0.483996
517.443	0.482863
517.789	0.481738
518.135	0.480520
518.481	0.479308
518.827	0.478176
519.173	0.476965
519.519	0.475825
519.865	0.474676
520.211	0.473500
520.557	0.472342
520.903	0.471231
521.249	0.470156
521.595	0.468964
521.941	0.467785
522.287	0.466587
522.632	0.465326
522.978	0.464140
523.324	0.462926
523.669	0.461658
524.015	0.460415
524.360	0.459057
524.706	0.457759
525.051	0.456543
525.397	0.455304
525.742	0.454169
526.087	0.452968
526.433	0.451860
526.778	0.450720
527.123	0.449521
527.468	0.448265
527.813	0.447160
528.158	0.445925
528.504	0.444668
528.849	0.443339
529.193	0.442037
529.538	0.440794
529.883	0.439509
530.228	0.438095
530.573	0.436754
530.918	0.435513
531.263	0.434275
531.607	0.433112
531.952	0.431866
532.296	0.430584
532.641	0.429446
532.986	0.428123
533.330	0.426799
533.675	0.425501
534.019	0.424102
534.363	0.422774
534.708	0.421471
535.052	0.420199
535.396	0.418931
535.741	0.417679
536.085	0.416471
536.429	0.415218
536.773	0.413888
537.117	0.412530
537.461	0.411102
537.805	0.409649
538.149	0.408099
538.493	0.406586
538.837	0.405035
539.181	0.403470
539.524	0.401876
539.868	0.400264
540.212	0.398714
540.556	0.397171
540.899	0.395627
541.243	0.394212
541.586	0.392717
541.930	0.391239
542.273	0.389571
542.617	0.387892
542.960	0.386202
543.304	0.384474
543.647	0.382736
543.990	0.381017
544.333	0.379290
544.677	0.377593
545.020	0.375989
545.363	0.374343
545.706	0.372648
546.049	0.370949
546.392	0.369286
546.735	0.367650
547.078	0.365929
547.421	0.364192
547.764	0.362414
548.106	0.360543
548.449	0.358590
548.792	0.356662
549.135	0.354731
549.477	0.352870
549.820	0.351104
550.162	0.349280
550.505	0.347457
550.847	0.345654
551.190	0.343659
551.532	0.341696
551.875	0.339627
552.217	0.337442
552.559	0.335373
552.901	0.333318
553.244	0.331314
553.586	0.329388
553.928	0.327462
554.270	0.325633
554.612	0.323805
554.954	0.322035
555.296	0.320180
555.638	0.318316
555.980	0.316297
556.322	0.314245
556.663	0.312089
557.005	0.309847
557.347	0.307670
557.689	0.305492
558.030	0.303337
558.372	0.301274
558.713	0.299158
559.055	0.297131
559.396	0.295061
559.738	0.292954
560.079	0.290811
560.421	0.288728
560.762	0.286685
561.103	0.284634
561.444	0.282652
561.786	0.280648
562.127	0.278641
562.468	0.276628
562.809	0.274534
563.150	0.272438
563.491	0.270187
563.832	0.267922
564.173	0.265600
564.514	0.263221
564.855	0.260776
565.195	0.258260
565.536	0.255781
565.877	0.253353
566.218	0.250944
566.558	0.248623
566.899	0.246401
567.239	0.244349
567.580	0.242493
567.920	0.240779
568.261	0.239193
568.601	0.237659
568.941	0.236245
569.282	0.234909
569.622	0.233587
569.962	0.232246
570.302	0.230973
570.643	0.229760
570.983	0.228656
571.323	0.227606
571.663	0.226592
572.003	0.225552
572.343	0.224515
572.683	0.223366
573.022	0.222118
573.362	0.220867
573.702	0.219635
574.042	0.218413
574.381	0.217239
574.721	0.216062
575.061	0.214944
575.400	0.213912
575.740	0.212875
576.079	0.211851
576.419	0.210705
576.758	0.209512
577.097	0.208289
577.437	0.207001
577.776	0.205680
578.115	0.204363
578.454	0.203117
578.794	0.202026
579.133	0.201050
579.472	0.200160
579.811	0.199344
580.150	0.198561
580.489	0.197715
580.828	0.196795
581.167	0.195865
581.505	0.194953
581.844	0.194048
582.183	0.193116
582.522	0.192176
582.860	0.191264
583.199	0.190407
583.538	0.189622
583.876	0.188870
584.215	0.188135
584.553	0.187422
584.891	0.186715
585.230	0.185977
585.568	0.185170
585.906	0.184265
586.245	0.183377
586.583	0.182504
586.921	0.181731
587.259	0.181050
587.597	0.180412
587.935	0.179736
588.273	0.178993
588.611	0.178084
588.949	0.177132
589.287	0.176152
589.625	0.175196
589.963	0.174325
590.300	0.173457
590.638	0.172697
590.976	0.171937
591.313	0.171163
591.651	0.170319
591.989	0.169523
592.326	0.168745
592.664	0.168061
593.001	0.167418
593.338	0.166832
593.676	0.166295
594.013	0.165755
594.350	0.165252
594.687	0.164798
595.025	0.164400
595.362	0.163947
595.699	0.163483
596.036	0.162977
596.373	0.162495
596.710	0.161989
597.047	0.161436
597.384	0.160886
597.720	0.160286
598.057	0.159709
598.394	0.159126
598.731	0.158591
599.067	0.158010
599.404	0.157452
599.741	0.156932
600.077	0.156428
600.414	0.155939
600.750	0.155516
601.087	0.155123
601.423	0.154677
601.759	0.154238
602.096	0.153764
602.432	0.153338
602.768	0.152919
603.104	0.152470
603.440	0.152047
603.776	0.151630
604.112	0.151226
604.448	0.150867
604.784	0.150526
605.120	0.150187
605.456	0.149860
605.792	0.149542
606.128	0.149223
606.463	0.148894
606.799	0.148534
607.135	0.148158
607.470	0.147858
607.806	0.147492
608.142	0.147148
608.477	0.146830
608.812	0.146477
609.148	0.146172
609.483	0.145836
609.819	0.145488
610.154	0.145180
610.489	0.144781
610.824	0.144430
611.159	0.144132
611.494	0.143773
611.830	0.143477
612.165	0.143266
612.500	0.143042
612.834	0.142804
613.169	0.142598
613.504	0.142345
613.839	0.142081
614.174	0.141827
614.509	0.141492
614.843	0.141227
615.178	0.140927
615.512	0.140691
615.847	0.140465
616.182	0.140244
616.516	0.140048
616.850	0.139861
617.185	0.139663
617.519	0.139460
617.853	0.139258
618.188	0.138917
618.522	0.138595
618.856	0.138255
619.190	0.137866
619.524	0.137540
619.858	0.137221
620.192	0.136944
620.526	0.136706
620.860	0.136480
621.194	0.136242
621.528	0.136003
621.862	0.135764
622.195	0.135588
622.529	0.135284
622.863	0.135034
623.196	0.134751
623.530	0.134521
623.864	0.134252
624.197	0.134032
624.530	0.133783
624.864	0.133561
625.197	0.133390
625.531	0.133213
625.864	0.133033
626.197	0.132817
626.530	0.132617
626.863	0.132374
627.196	0.132069
627.529	0.131804
627.862	0.131472
628.195	0.131199
628.528	0.130906
628.861	0.130560
629.194	0.130263
629.527	0.129984
629.860	0.129731
630.192	0.129484
630.525	0.129135
630.858	0.128862
631.190	0.128531
631.523	0.128231
631.855	0.127826
632.188	0.127461
632.520	0.127165
632.852	0.126864
633.185	0.126552
633.517	0.126282
633.849	0.126073
634.182	0.125907
634.514	0.125734
634.846	0.125623
635.178	0.125444
635.510	0.125290
635.842	0.125194
636.174	0.124970
636.506	0.124891
636.837	0.124632
637.169	0.124441
637.501	0.124290
637.833	0.124156
638.164	0.123999
638.496	0.123809
638.828	0.123572
639.159	0.123381
639.491	0.123084
639.822	0.122736
640.154	0.122368
640.485	0.121953
640.816	0.121472
641.147	0.121066
641.479	0.120604
641.810	0.120191
642.141	0.119807
642.472	0.119494
642.803	0.119101
643.134	0.118761
643.465	0.118348
643.796	0.118088
644.127	0.117846
644.458	0.117636
644.789	0.117400
645.119	0.117353
645.450	0.117403
645.781	0.117560
646.111	0.117793
646.442	0.117964
646.773	0.118069
647.103	0.118131
647.433	0.118092
647.764	0.118110
648.094	0.118083
648.425	0.118179
648.755	0.118224
649.085	0.118256
649.415	0.118280
649.745	0.118369
650.075	0.118421
650.405	0.118420
650.735	0.117032
651.065	0.108751
651.395	0.102323
651.725	0.090974
652.055	0.062309
652.385	0.046087
652.715	0.035633
653.044	0.028337
653.374	0.022984
653.704	0.018900
654.033	0.025162
654.363	0.030516
654.692	0.033519
655.022	0.035245
655.351	0.036270
655.680	0.036859
656.010	0.037170
656.339	0.037302
656.668	0.037318
656.997	0.037275
657.326	0.037192
657.655	0.037102
657.984	0.036591
658.313	0.033601
658.642	0.029956
658.971	0.034798
659.300	0.040973
659.629	0.049127
659.958	0.060402
660.286	0.076993
660.615	0.103890
660.944	0.110741
661.272	0.109016
661.601	0.108584
661.929	0.109078
662.258	0.110140
662.586	0.111309
662.915	0.112149
663.243	0.112388
663.571	0.112397
663.899	0.112366
664.228	0.112261
664.556	0.112154
664.884	0.112030
665.212	0.111938
665.540	0.111787
665.868	0.111721
666.196	0.111750
666.524	0.111771
666.852	0.111756
667.179	0.111706
667.507	0.111636
667.835	0.111636
668.162	0.111705
668.490	0.111766
668.818	0.111953
669.145	0.112114
669.473	0.112292
669.800	0.112489
670.127	0.112636
670.455	0.112752
670.782	0.112873
671.109	0.112880
671.436	0.113040
671.764	0.113119
672.091	0.113220
672.418	0.113283
672.745	0.113401
673.072	0.113448
673.399	0.113484
673.726	0.113518
674.053	0.113609
674.379	0.113609
674.706	0.113628
675.033	0.113528
675.359	0.113534
675.686	0.113470
676.013	0.113391
676.339	0.113279
676.666	0.113100
676.992	0.113041
677.318	0.113059
677.645	0.112967
677.971	0.113014
678.297	0.112921
678.624	0.112965
678.950	0.112905
679.276	0.112891
679.602	0.112731
679.928	0.112571
680.254	0.112438
680.580	0.112256
680.906	0.112220
681.232	0.112270
681.558	0.112410
681.883	0.112591
682.209	0.112757
682.535	0.112880
682.860	0.112950
683.186	0.113071
683.511	0.113152
683.837	0.113063
684.162	0.113073
684.488	0.113064
684.813	0.113067
685.138	0.113068
685.464	0.113014
685.789	0.112883
686.114	0.112809
686.439	0.112828
686.764	0.112875
687.089	0.112925
687.414	0.113057
687.739	0.113122
688.064	0.113130
688.389	0.113082
688.714	0.113050
689.039	0.112873
689.363	0.112780
689.688	0.112754
690.013	0.112627
690.337	0.112524
690.662	0.112606
690.986	0.112605
691.311	0.112639
691.635	0.112604
691.959	0.112572
692.284	0.112438
692.608	0.112422
692.932	0.112348
693.256	0.112358
693.580	0.112450
693.904	0.112487
694.228	0.112566
694.552	0.112721
694.876	0.112862
695.200	0.112848
695.524	0.112756
695.848	0.112690
696.172	0.112500
696.495	0.112244
696.819	0.112125
697.143	0.111909
697.466	0.111755
697.790	0.111411
698.113	0.111198
698.437	0.110984
698.760	0.110826
699.083	0.110839
699.407	0.110823
699.730	0.110836
700.053	0.110820
700.376	0.110645
700.699	0.110433
701.022	0.110096
701.345	0.109522
701.668	0.108898
701.991	0.108422
702.314	0.107847
702.637	0.107356
702.960	0.107011
703.283	0.106776
703.605	0.106551
703.928	0.106530
704.251	0.106523
704.573	0.106717
704.896	0.106795
705.218	0.106775
705.540	0.106639
705.863	0.106446
706.185	0.106144
706.507	0.105785
706.830	0.105404
707.152	0.104929
707.474	0.104551
707.796	0.104154
708.118	0.103864
708.440	0.103633
708.762	0.103482
709.084	0.103396
709.406	0.103276
709.728	0.103146
710.049	0.103002
710.371	0.102844
710.693	0.102640
711.014	0.102279
711.336	0.101981
711.658	0.101723
711.979	0.101583
712.301	0.101433
712.622	0.101295
712.943	0.101190
713.265	0.101069
713.586	0.100877
713.907	0.100926
714.228	0.100956
714.549	0.101011
714.870	0.101097
715.191	0.101152
715.512	0.101162
715.833	0.101248
716.154	0.101245
716.475	0.101123
716.796	0.101007
717.117	0.100745
717.437	0.100423
717.758	0.100173
718.078	0.099794
718.399	0.099412
718.719	0.099024
719.040	0.098735
719.360	0.098448
719.681	0.098218
720.001	0.098079
720.321	0.097985
720.642	0.097808
720.962	0.097549
721.282	0.097395
721.602	0.097231
721.922	0.097144
722.242	0.097041
722.562	0.096851
722.882	0.096771
723.202	0.096787
723.521	0.096737
723.841	0.096726
724.161	0.096727
724.481	0.096718
724.800	0.096751
725.120	0.096736
725.439	0.096777
725.759	0.096742
726.078	0.096808
726.398	0.096822
726.717	0.096887
727.036	0.096971
727.355	0.097128
727.675	0.097350
727.994	0.097541
728.313	0.097738
728.632	0.097864
728.951	0.097889
729.270	0.097831
729.589	0.097677
729.908	0.097519
730.226	0.097366
730.545	0.097231
730.864	0.097099
731.182	0.096938
731.501	0.096789
731.820	0.096723
732.138	0.096628
732.457	0.096478
732.775	0.096314
733.093	0.096241
733.412	0.096149
733.730	0.096049
734.048	0.095833
734.367	0.095541
734.685	0.095203
735.003	0.094831
735.321	0.094539
735.639	0.094239
735.957	0.094089
736.275	0.093987
736.593	0.093901
736.910	0.093766
737.228	0.093687
737.546	0.093516
737.863	0.093431
738.181	0.093218
738.499	0.092956
738.816	0.092698
739.134	0.092493
739.451	0.092307
739.768	0.092110
740.086	0.091807
740.403	0.091455
740.720	0.091191
741.038	0.090948
741.355	0.090680
741.672	0.090393
741.989	0.089977
742.306	0.089617
742.623	0.089138
742.940	0.088623
743.257	0.087989
743.573	0.087439
743.890	0.086888
744.207	0.086471
744.523	0.086032
744.840	0.085704
745.157	0.085348
745.473	0.085013
745.790	0.084852
746.106	0.084489
746.422	0.084199
746.739	0.083950
747.055	0.083795
747.371	0.083594
747.687	0.083540
748.004	0.083540
748.320	0.083504
748.636	0.083467
748.952	0.083479
749.268	0.083480
749.584	0.083597
749.899	0.083653
750.215	0.083707
750.531	0.083784
750.847	0.083818
751.162	0.083793
751.478	0.083826
751.793	0.083809
752.109	0.083745
752.424	0.083670
752.740	0.083673
753.055	0.083673
753.370	0.083734
753.686	0.083897
754.001	0.084180
754.316	0.084435
754.631	0.084640
754.946	0.084793
755.261	0.084900
755.576	0.084944
755.891	0.084939
756.206	0.084827
756.521	0.084710
756.836	0.084644
757.150	0.084619
757.465	0.084615
757.780	0.084642
758.094	0.084669
758.409	0.084707
758.723	0.084769
759.038	0.084725
759.352	0.084685
759.667	0.084570
759.981	0.084457
760.295	0.084205
760.609	0.083898
760.923	0.083600
761.238	0.083291
761.552	0.083020
761.866	0.082784
762.180	0.082673
762.493	0.082587
762.807	0.082511
763.121	0.082417
763.435	0.082227
763.749	0.081916
764.062	0.081662
764.376	0.081359
764.689	0.081009
765.003	0.080734
765.316	0.080524
765.630	0.080486
765.943	0.080357
766.257	0.080327
766.570	0.080118
766.883	0.079945
767.196	0.079684
767.509	0.079297
767.822	0.078973
768.135	0.078622
768.448	0.078346
768.761	0.077921
769.074	0.077580
769.387	0.077254
769.700	0.077007
770.013	0.076801
770.325	0.076648
770.638	0.076494
770.950	0.076267
771.263	0.076105
771.575	0.075833
771.888	0.075443
772.200	0.074998
772.513	0.074568
772.825	0.074079
773.137	0.073705
773.449	0.073310
773.761	0.072919
774.074	0.072681
774.386	0.072326
774.698	0.072006
775.010	0.071589
775.321	0.071252
775.633	0.070865
775.945	0.070627
776.257	0.070443
776.568	0.070375
776.880	0.070223
777.192	0.070054
777.503	0.070004
777.815	0.069926
778.126	0.069931
778.438	0.070127
778.749	0.070308
779.060	0.070451
779.372	0.070470
779.683	0.070506
779.994	0.070578
780.305	0.070718
780.616	0.070777
780.927	0.070881
781.238	0.070848
781.549	0.070844
781.860	0.070856
782.171	0.070909
782.481	0.070915
782.792	0.070802
783.103	0.070707
783.413	0.070643
783.724	0.070440
784.034	0.070367
784.345	0.070247
784.655	0.070144
784.966	0.069927
785.276	0.069695
785.586	0.069480
785.896	0.069295
786.207	0.069293
786.517	0.069205
786.827	0.069116
787.137	0.069019
787.447	0.068866
787.757	0.068899
788.066	0.068830
788.376	0.068859
788.686	0.068784
788.996	0.068741
789.305	0.068725
789.615	0.068592
789.925	0.068525
790.234	0.068561
790.544	0.068562
790.853	0.068567
791.162	0.068561
791.472	0.068662
791.781	0.068775
792.090	0.068856
792.399	0.068927
792.708	0.068715
793.017	0.068654
793.326	0.068387
793.635	0.068253
793.944	0.068063
794.253	0.067811
794.562	0.067688
794.871	0.067483
795.179	0.067409
795.488	0.067217
795.797	0.067138
796.105	0.067060
796.414	0.067000
796.722	0.066951
797.031	0.066736
797.339	0.066433
797.647	0.066125
797.956	0.065534
798.264	0.064868
798.572	0.064410
798.880	0.064033
799.188	0.063671
799.496	0.063323
799.804	0.063239
800.112	0.062891
800.420	0.062812
800.728	0.062780
801.035	0.062515
801.343	0.062201
801.651	0.061637
801.958	0.061285
802.266	0.061140
802.573	0.061129
802.881	0.061046
803.188	0.060865
803.496	0.060875
803.803	0.061190
804.110	0.061259
804.417	0.061297
804.724	0.061324
805.032	0.061252
805.339	0.061259
805.646	0.061358
805.953	0.061234
806.259	0.061088
806.566	0.061025
806.873	0.060916
807.180	0.060768
807.486	0.060831
807.793	0.060871
808.100	0.060967
808.406	0.060979
808.713	0.060821
809.019	0.060371
809.326	0.060065
809.632	0.059876
809.938	0.059413
810.244	0.058766
810.551	0.058303
810.857	0.057832
811.163	0.057643
811.469	0.057433
811.775	0.057097
812.081	0.056808
812.387	0.056697
812.692	0.056636
812.998	0.056734
813.304	0.056673
813.610	0.056909
813.915	0.056848
814.221	0.056702
814.526	0.056699
814.832	0.056846
815.137	0.056923
815.443	0.057000
815.748	0.056972
816.053	0.056756
816.358	0.056577
816.664	0.056408
816.969	0.056319
817.274	0.056472
817.579	0.056263
817.884	0.056140
818.189	0.056178
818.493	0.056031
818.798	0.056084
819.103	0.055851
819.408	0.055546
819.712	0.055367
820.017	0.054945
820.321	0.054770
820.626	0.054767
820.930	0.054398
821.235	0.054049
821.539	0.053657
821.843	0.053646
822.148	0.053576
822.452	0.053602
822.756	0.053979
823.060	0.053918
823.364	0.054264
823.668	0.054323
823.972	0.054396
824.276	0.054384
824.580	0.054196
824.883	0.054450
825.187	0.054356
825.491	0.054570
825.795	0.054535
826.098	0.054506
826.402	0.054536
826.705	0.054673
827.008	0.054416
827.312	0.054448
827.615	0.054293
827.918	0.054073
828.222	0.053714
828.525	0.053532
828.828	0.053451
829.131	0.053163
829.434	0.053145
829.737	0.052502
830.040	0.051840
830.343	0.051358
830.645	0.051082
830.948	0.050798
831.251	0.050419
831.553	0.050206
831.856	0.050013
832.159	0.050295
832.461	0.050325
832.764	0.050152
833.066	0.049571
833.368	0.049581
833.671	0.049511
833.973	0.049152
834.275	0.049254
834.577	0.049294
834.879	0.049102
835.181	0.048816
835.483	0.048517
835.785	0.048088
836.087	0.047893
836.389	0.048038
836.690	0.047536
836.992	0.046708
837.294	0.046124
837.595	0.044987
837.897	0.044050
838.198	0.043072
838.500	0.042113
838.801	0.041145
839.103	0.040651
839.404	0.040250
839.705	0.039743
840.006	0.039465
840.307	0.039873
840.608	0.039764
840.910	0.039656
841.210	0.039708
841.511	0.039649
841.812	0.039214
842.113	0.039533
842.414	0.038826
842.715	0.038267
843.015	0.037807
843.316	0.037940
843.616	0.036940
843.917	0.036972
844.217	0.036834
844.518	0.037125
844.818	0.036562
845.118	0.036648
845.419	0.036172
845.719	0.036237
846.019	0.035814
846.319	0.035571
846.619	0.034704
846.919	0.035078
847.219	0.035268
847.519	0.034976
847.819	0.035082
848.118	0.035213
848.418	0.034847
848.718	0.035104
849.017	0.035251
849.317	0.035490
849.616	0.035744
849.916	0.036932
850.215	0.037207
850.515	0.037729
850.814	0.038085
851.113	0.038618
851.412	0.039556
851.712	0.039885
852.011	0.040135
852.310	0.040542
852.609	0.040606
852.908	0.040854
853.206	0.040592
853.505	0.040912
853.804	0.041017
854.103	0.041193
854.401	0.041339
854.700	0.041409
854.999	0.041325
855.297	0.041295
855.595	0.041529
855.894	0.041440
856.192	0.041290
856.491	0.041403
856.789	0.041339
857.087	0.040890
857.385	0.040427
857.683	0.039469
857.981	0.038908
858.279	0.038538
858.577	0.037821
858.875	0.037478
859.173	0.036842
859.471	0.036877
859.768	0.036170
860.066	0.035733
860.363	0.035339
860.661	0.034614
860.959	0.034765
861.256	0.035198
861.553	0.035015
861.851	0.034019
862.148	0.033614
862.445	0.033016
862.742	0.032410
863.039	0.031569
863.337	0.031128
863.634	0.030864
863.931	0.030328
864.227	0.030279
864.524	0.029805
864.821	0.030108
865.118	0.029403
865.415	0.029573
865.711	0.029081
866.008	0.028079
866.304	0.027985
866.601	0.027120
866.897	0.026650
867.194	0.025987
867.490	0.025162
867.786	0.025183
868.082	0.025977
868.379	0.026042
868.675	0.026294
868.971	0.026669
869.267	0.026909
869.563	0.027497
869.859	0.027156
870.154	0.027347
870.450	0.027558
870.746	0.027448
871.042	0.027630
871.337	0.028267
871.633	0.028221
871.928	0.028517
872.224	0.028839
872.519	0.028297
872.815	0.028447
873.110	0.029007
873.405	0.028686
873.700	0.029063
873.995	0.028365
874.291	0.027814
874.586	0.028458
874.881	0.028049
875.175	0.027741
875.470	0.027615
875.765	0.027435
876.060	0.027827
876.355	0.028230
876.649	0.028216
876.944	0.028207
877.238	0.027967
877.533	0.028008
877.827	0.028529
878.122	0.028545
878.416	0.028950
878.710	0.029712
879.005	0.029659
879.299	0.029589
879.593	0.029474
879.887	0.028955
880.181	0.028785
880.475	0.029188
880.769	0.028145
881.063	0.028300
881.356	0.028187
881.650	0.027844
881.944	0.027272
882.238	0.024003
882.531	0.022045
882.825	0.015585
883.118	0.010635
883.412	0.029127
883.705	0.010399
883.998	0.023040
884.291	0.022277
884.585	0.017229
884.878	0.020305
>>>>>>>>>> END of Data <<<<<<<<<<
>>>>>>>>>> Raw Data Start <<<<<<<<
190.664	-392
191.040	7
191.415	7
191.791	4
192.166	9
192.542	7
192.917	10
193.293	9
193.668	4
194.044	7
194.419	-9
194.794	10
195.170	10
195.545	10
195.920	11
196.296	11
196.671	12
197.046	12
197.421	13
197.796	14
198.171	14
198.546	15
198.922	15
199.297	15
199.672	16
200.047	17
200.422	17
200.796	17
201.171	17
201.546	17
201.921	17
202.296	18
202.671	18
203.045	18
203.420	18
203.795	18
204.170	18
204.544	18
204.919	18
205.294	18
205.668	18
206.043	17
206.417	17
206.792	17
207.166	17
207.541	16
207.915	16
208.289	16
208.664	16
209.038	16
209.412	16
209.787	16
210.161	16
210.535	16
210.909	16
211.284	15
211.658	16
212.032	16
212.406	16
212.780	16
213.154	16
213.528	16
213.902	16
214.276	16
214.650	16
215.024	16
215.398	16
215.772	16
216.145	16
216.519	16
216.893	16
217.267	16
217.640	16
218.014	16
218.388	17
218.761	17
219.135	17
219.508	18
219.882	18
220.256	18
220.629	18
221.003	18
221.376	18
221.749	18
222.123	18
222.496	18
222.869	18
223.243	18
223.616	18
223.989	18
224.362	18
224.736	18
225.109	18
225.482	18
225.855	18
226.228	18
226.601	17
226.974	17
227.347	17
227.720	17
228.093	17
228.466	17
228.839	17
229.212	17
229.585	17
229.957	17
230.330	17
230.703	17
231.076	17
231.448	17
231.821	17
232.194	17
232.566	17
232.939	17
233.311	17
233.684	17
234.056	17
234.429	17
234.801	17
235.174	18
235.546	18
235.918	19
236.291	18
236.663	18
237.035	18
237.408	18
237.780	19
238.152	19
238.524	19
238.896	19
239.268	19
239.641	19
240.013	19
240.385	19
240.757	19
241.129	19
241.500	19
241.872	19
242.244	19
242.616	19
242.988	19
243.360	19
243.731	18
244.103	19
244.475	19
244.847	19
245.218	19
245.590	19
245.961	19
246.333	19
246.705	19
247.076	18
247.448	19
247.819	19
248.190	19
248.562	19
248.933	19
249.305	19
249.676	20
250.047	20
250.418	19
250.790	20
251.161	20
251.532	20
251.903	20
252.274	20
252.645	20
253.016	20
253.387	20
253.758	20
254.129	20
254.500	20
254.871	20
255.242	21
255.613	21
255.984	21
256.355	20
256.725	20
257.096	20
257.467	20
257.838	20
258.208	20
258.579	20
258.949	20
259.320	20
259.690	20
260.061	20
260.431	20
260.802	20
261.172	20
261.543	20
261.913	20
262.283	20
262.654	20
263.024	20
263.394	20
263.764	20
264.135	20
264.505	20
264.875	20
265.245	20
265.615	20
265.985	20
266.355	19
266.725	19
267.095	20
267.465	20
267.835	20
268.205	20
268.575	20
268.944	20
269.314	20
269.684	19
270.054	19
270.423	19
270.793	19
271.163	19
271.532	19
271.902	19
272.271	19
272.641	19
273.010	19
273.380	19
273.749	20
274.119	20
274.488	20
274.857	19
275.227	20
275.596	20
275.965	20
276.335	20
276.704	20
277.073	20
277.442	20
277.811	20
278.180	20
278.549	20
278.918	20
279.287	20
279.656	21
280.025	21
280.394	21
280.763	21
281.132	21
281.501	21
281.869	20
282.238	20
282.607	20
282.976	20
283.344	20
283.713	20
284.081	20
284.450	20
284.819	20
285.187	20
285.556	20
285.924	20
286.292	20
286.661	20
287.029	20
287.398	20
287.766	20
288.134	20
288.502	20
288.871	20
289.239	20
289.607	20
289.975	20
290.343	20
290.711	20
291.079	21
291.447	20
291.815	21
292.183	21
292.551	21
292.919	21
293.287	21
293.655	21
294.022	21
294.390	21
294.758	20
295.126	20
295.493	20
295.861	19
296.229	20
296.596	20
296.964	20
297.331	20
297.699	20
298.066	20
298.434	20
298.801	20
299.168	20
299.536	20
299.903	20
300.270	20
300.638	20
301.005	20
301.372	20
301.739	20
302.106	21
302.473	21
302.840	21
303.207	21
303.574	22
303.941	22
304.308	22
304.675	22
305.042	22
305.409	22
305.776	22
306.143	22
306.509	23
306.876	22
307.243	23
307.610	23
307.976	23
308.343	23
308.709	24
309.076	23
309.442	23
309.809	24
310.175	24
310.542	24
310.908	25
311.275	25
311.641	26
312.007	26
312.373	26
312.740	27
313.106	27
313.472	28
313.838	28
314.204	28
314.570	30
314.936	31
315.302	31
315.668	32
316.034	33
316.400	33
316.766	34
317.132	34
317.498	35
317.864	37
318.230	38
318.595	38
318.961	40
319.327	40
319.692	42
320.058	44
320.424	45
320.789	46
321.155	48
321.520	50
321.886	51
322.251	53
322.616	55
322.982	57
323.347	59
323.712	61
324.078	63
324.443	66
324.808	69
325.173	71
325.539	73
325.904	76
326.269	79
326.634	81
326.999	84
327.364	87
327.729	89
328.094	92
328.459	95
328.823	98
329.188	101
329.553	104
329.918	106
330.283	109
330.647	112
331.012	115
331.377	118
331.741	122
332.106	125
332.470	127
332.835	131
333.199	134
333.564	137
333.928	141
334.293	144
334.657	147
335.021	150
335.386	154
335.750	157
336.114	161
336.478	164
336.843	168
337.207	172
337.571	175
337.935	178
338.299	182
338.663	185
339.027	189
339.391	192
339.755	196
340.119	199
340.483	203
340.846	206
341.210	209
341.574	212
341.938	215
342.301	219
342.665	222
343.029	225
343.392	228
343.756	231
344.119	233
344.483	236
344.846	239
345.210	242
345.573	245
345.937	247
346.300	250
346.663	252
347.027	254
347.390	256
347.753	259
348.116	261
348.479	264
348.843	266
349.206	269
349.569	271
349.932	273
350.295	276
350.658	278
351.021	279
351.383	281
351.746	283
352.109	285
352.472	287
352.835	288
353.197	290
353.560	292
353.923	294
354.285	295
354.648	297
355.011	299
355.373	300
355.736	302
356.098	303
356.461	305
356.823	306
357.185	307
357.548	308
357.910	310
358.272	312
358.635	314
358.997	315
359.359	317
359.721	318
360.083	319
360.445	320
360.807	321
361.169	323
361.531	324
361.893	325
362.255	326
362.617	328
362.979	329
363.341	331
363.703	332
364.064	333
364.426	335
364.788	336
365.149	338
365.511	339
365.873	339
366.234	340
366.596	341
366.957	342
367.319	343
367.680	343
368.042	344
368.403	345
368.764	345
369.126	346
369.487	347
369.848	347
370.209	348
370.570	348
370.931	348
371.293	349
371.654	349
372.015	349
372.376	349
372.737	349
373.098	350
373.458	351
373.819	351
374.180	351
374.541	352
374.902	353
375.263	354
375.623	356
375.984	357
376.345	358
376.705	359
377.066	360
377.426	361
377.787	362
378.147	363
378.508	364
378.868	365
379.228	366
379.589	367
379.949	368
380.309	369
380.670	369
381.030	370
381.390	371
381.750	372
382.110	373
382.470	373
382.830	374
383.190	374
383.550	375
383.910	375
384.270	377
384.630	379
384.990	380
385.350	381
385.709	383
386.069	384
386.429	385
386.788	386
387.148	387
387.508	388
387.867	389
388.227	391
388.586	393
388.946	395
389.305	398
389.665	400
390.024	403
390.383	406
390.743	408
391.102	410
391.461	411
391.820	412
392.179	414
392.539	415
392.898	416
393.257	418
393.616	419
393.975	422
394.334	425
394.693	428
395.051	432
395.410	436
395.769	438
396.128	440
396.487	442
396.845	443
397.204	444
397.563	445
397.921	446
398.280	447
398.638	448
398.997	449
399.355	451
399.714	452
400.072	454
400.431	456
400.789	457
401.147	459
401.506	461
401.864	463
402.222	464
402.580	464
402.938	465
403.297	465
403.655	465
404.013	465
404.371	466
404.729	467
405.087	468
405.444	469
405.802	471
406.160	473
406.518	475
406.876	476
407.233	478
407.591	479
407.949	480
408.306	482
408.664	483
409.022	484
409.379	486
409.737	487
410.094	490
410.451	492
410.809	495
411.166	497
411.523	500
411.881	502
412.238	505
412.595	507
412.952	509
413.310	511
413.667	512
414.024	515
414.381	517
414.738	519
415.095	521
415.452	524
415.809	527
416.165	529
416.522	532
416.879	536
417.236	540
417.593	545
417.949	551
418.306	557
418.663	564
419.019	572
419.376	579
419.732	587
420.089	593
420.445	600
420.802	606
421.158	612
421.514	617
421.871	623
422.227	628
422.583	632
422.939	637
423.295	641
423.652	645
424.008	649
424.364	653
424.720	656
425.076	658
425.432	661
425.788	663
426.143	667
426.499	672
426.855	676
427.211	681
427.567	686
427.922	690
428.278	694
428.634	697
428.989	700
429.345	703
429.700	707
430.056	712
430.411	717
430.767	723
431.122	729
431.478	734
431.833	739
432.188	744
432.543	748
432.899	752
433.254	755
433.609	758
433.964	758
434.319	760
434.674	762
435.029	765
435.384	769
435.739	773
436.094	779
436.449	786
436.804	794
437.158	803
437.513	812
437.868	823
438.223	834
438.577	846
438.932	858
439.287	871
439.641	883
439.996	896
440.350	909
440.704	922
441.059	934
441.413	947
441.768	960
442.122	972
442.476	984
442.830	996
443.185	1008
443.539	1018
443.893	1030
444.247	1039
444.601	1048
444.955	1054
445.309	1059
445.663	1063
446.017	1066
446.371	1069
446.724	1072
447.078	1074
447.432	1075
447.786	1076
448.139	1076
448.493	1076
448.847	1075
449.200	1074
449.554	1073
449.907	1072
450.261	1071
450.614	1070
450.968	1069
451.321	1069
451.674	1069
452.027	1068
452.381	1069
452.734	1070
453.087	1071
453.440	1074
453.793	1076
454.146	1080
454.499	1087
454.852	1095
455.205	1104
455.558	1113
455.911	1123
456.264	1133
456.617	1141
456.970	1150
457.322	1158
457.675	1166
458.028	1172
458.380	1178
458.733	1183
459.086	1188
459.438	1195
459.791	1202
460.143	1211
460.496	1222
460.848	1235
461.200	1248
461.553	1263
461.905	1276
462.257	1288
462.609	1299
462.961	1308
463.314	1317
463.666	1325
464.018	1331
464.370	1337
464.722	1345
465.074	1353
465.426	1359
465.777	1366
466.129	1371
466.481	1374
466.833	1376
467.184	1376
467.536	1375
467.888	1372
468.239	1368
468.591	1364
468.943	1362
469.294	1360
469.646	1361
469.997	1364
470.348	1370
470.700	1378
471.051	1390
471.402	1404
471.754	1421
472.105	1438
472.456	1456
472.807	1478
473.158	1502
473.509	1527
473.860	1556
474.211	1584
474.562	1615
474.913	1646
475.264	1680
475.615	1712
475.966	1745
476.316	1777
476.667	1809
477.018	1841
477.368	1874
477.719	1907
478.070	1939
478.420	1969
478.771	1999
479.121	2028
479.472	2057
479.822	2088
480.172	2122
480.523	2160
480.873	2214
481.223	2304
481.573	2439
481.924	2609
482.274	2800
482.624	3001
482.974	3202
483.324	3378
483.674	3511
484.024	3602
484.374	3662
484.724	3700
485.073	3725
485.423	3748
485.773	3768
486.123	3787
486.472	3805
486.822	3823
487.172	3837
487.521	3847
487.871	3851
488.220	3837
488.570	3786
488.919	3691
489.268	3560
489.618	3407
489.967	3243
490.316	3077
490.666	2932
491.015	2829
491.364	2765
491.713	2732
492.062	2721
492.411	2721
492.760	2727
493.109	2734
493.458	2743
493.807	2749
494.156	2753
494.505	2759
494.853	2764
495.202	2773
495.551	2786
495.900	2797
496.248	2811
496.597	2825
496.945	2838
497.294	2850
497.642	2864
497.991	2880
498.339	2900
498.688	2920
499.036	2939
499.384	2957
499.732	2973
500.081	2985
500.429	2996
500.777	3006
501.125	3015
501.473	3024
501.821	3034
502.169	3043
502.517	3051
502.865	3054
503.213	3056
503.561	3056
503.908	3055
504.256	3053
504.604	3050
504.952	3045
505.299	3039
505.647	3030
505.994	3019
506.342	3008
506.689	2996
507.037	2985
507.384	2977
507.732	2971
508.079	2965
508.426	2959
508.774	2955
509.121	2948
509.468	2941
509.815	2933
510.162	2926
510.509	2919
510.856	2911
511.203	2902
511.550	2893
511.897	2885
512.244	2877
512.591	2869
512.938	2861
513.284	2854
513.631	2846
513.978	2837
514.324	2827
514.671	2816
515.018	2805
515.364	2797
515.711	2788
516.057	2779
516.403	2770
516.750	2761
517.096	2750
517.443	2737
517.789	2725
518.135	2713
518.481	2704
518.827	2694
519.173	2683
519.519	2674
519.865	2664
520.211	2657
520.557	2649
520.903	2641
521.249	2635
521.595	2629
521.941	2623
522.287	2617
522.632	2611
522.978	2605
523.324	2601
523.669	2599
524.015	2598
524.360	2602
524.706	2608
525.051	2617
525.397	2628
525.742	2640
526.087	2653
526.433	2665
526.778	2676
527.123	2683
527.468	2690
527.813	2695
528.158	2701
528.504	2710
528.849	2722
529.193	2739
529.538	2758
529.883	2783
530.228	2812
530.573	2844
530.918	2877
531.263	2910
531.607	2940
531.952	2967
532.296	2990
532.641	3007
532.986	3021
533.330	3034
533.675	3047
534.019	3066
534.363	3090
534.708	3119
535.052	3152
535.396	3188
535.741	3223
536.085	3252
536.429	3278
536.773	3300
537.117	3317
537.461	3331
537.805	3343
538.149	3356
538.493	3371
538.837	3387
539.181	3407
539.524	3434
539.868	3465
540.212	3500
540.556	3537
540.899	3576
541.243	3609
541.586	3637
541.930	3658
542.273	3673
542.617	3683
542.960	3694
543.304	3710
543.647	3731
543.990	3761
544.333	3794
544.677	3829
545.020	3861
545.363	3887
545.706	3906
546.049	3919
546.392	3924
546.735	3921
547.078	3917
547.421	3912
547.764	3910
548.106	3910
548.449	3914
548.792	3926
549.135	3945
549.477	3969
549.820	3993
550.162	4012
550.505	4026
550.847	4034
551.190	4036
551.532	4036
551.875	4035
552.217	4037
552.559	4042
552.901	4054
553.244	4070
553.586	4088
553.928	4109
554.270	4126
554.612	4138
554.954	4146
555.296	4151
555.638	4156
555.980	4161
556.322	4169
556.663	4184
557.005	4210
557.347	4245
557.689	4283
558.030	4322
558.372	4355
558.713	4386
559.055	4413
559.396	4440
559.738	4468
560.079	4500
560.421	4538
560.762	4583
561.103	4633
561.444	4690
561.786	4749
562.127	4814
562.468	4884
562.809	4962
563.150	5049
563.491	5144
563.832	5248
564.173	5368
564.514	5507
564.855	5675
565.195	5883
565.536	6135
565.877	6428
566.218	6763
566.558	7142
566.899	7559
567.239	8008
567.580	8478
567.920	8961
568.261	9448
568.601	9947
568.941	10462
569.282	10992
569.622	11540
569.962	12110
570.302	12716
570.643	13341
570.983	13969
571.323	14573
571.663	15153
572.003	15702
572.343	16212
572.683	16687
573.022	17170
573.362	17675
573.702	18195
574.042	18713
574.381	19207
574.721	19676
575.061	20122
575.400	20525
575.740	20879
576.079	21188
576.419	21496
576.758	21847
577.097	22264
577.437	22723
577.776	23212
578.115	23725
578.454	24246
578.794	24721
579.133	25084
579.472	25324
579.811	25452
580.150	25471
580.489	25410
580.828	25311
581.167	25214
581.505	25136
581.844	25069
582.183	25003
582.522	24957
582.860	24927
583.199	24897
583.538	24832
583.876	24690
584.215	24446
584.553	24086
584.891	23621
585.230	23058
585.568	22441
585.906	21818
586.245	21254
586.583	20767
586.921	20363
587.259	19996
587.597	19628
587.935	19248
588.273	18859
588.611	18496
588.949	18172
589.287	17898
589.625	17676
589.963	17497
590.300	17352
590.638	17217
590.976	17069
591.313	16900
591.651	16740
591.989	16598
592.326	16482
592.664	16381
593.001	16295
593.338	16238
593.676	16204
594.013	16200
594.350	16247
594.687	16336
595.025	16436
595.362	16528
595.699	16588
596.036	16622
596.373	16619
596.710	16573
597.047	16499
597.384	16411
597.720	16316
598.057	16237
598.394	16177
598.731	16136
599.067	16125
599.404	16140
599.741	16193
600.077	16274
600.414	16367
600.750	16465
601.087	16538
601.423	16569
601.759	16563
602.096	16526
602.432	16469
602.768	16385
603.104	16275
603.440	16139
603.776	15996
604.112	15843
604.448	15686
604.784	15522
605.120	15347
605.456	15178
605.792	15002
606.128	14818
606.463	14630
606.799	14441
607.135	14269
607.470	14096
607.806	13926
608.142	13760
608.477	13601
608.812	13448
609.148	13294
609.483	13132
609.819	12968
610.154	12810
610.489	12666
610.824	12538
611.159	12429
611.494	12321
611.830	12224
612.165	12129
612.500	12024
612.834	11904
613.169	11766
613.504	11616
613.839	11451
614.174	11263
614.509	11076
614.843	10888
615.178	10711
615.512	10535
615.847	10362
616.182	10191
616.516	10018
616.850	9836
617.185	9647
617.519	9455
617.853	9249
618.188	9037
618.522	8843
618.856	8677
619.190	8533
619.524	8405
619.858	8303
620.192	8222
620.526	8149
620.860	8079
621.194	8010
621.528	7943
621.862	7876
622.195	7795
622.529	7710
622.863	7621
623.196	7534
623.530	7444
623.864	7355
624.197	7265
624.530	7178
624.864	7099
625.197	7017
625.531	6924
625.864	6812
626.197	6693
626.530	6565
626.863	6421
627.196	6266
627.529	6108
627.862	5953
628.195	5799
628.528	5647
628.861	5501
629.194	5370
629.527	5246
629.860	5123
630.192	5001
630.525	4887
630.858	4781
631.190	4681
631.523	4584
631.855	4493
632.188	4414
632.520	4339
632.852	4269
633.185	4198
633.517	4129
633.849	4066
634.182	4009
634.514	3954
634.846	3905
635.178	3862
635.510	3824
635.842	3788
636.174	3754
636.506	3720
636.837	3687
637.169	3654
637.501	3619
637.833	3581
638.164	3538
638.496	3490
638.828	3437
639.159	3377
639.491	3312
639.822	3246
640.154	3178
640.485	3111
640.816	3046
641.147	2980
641.479	2918
641.810	2857
642.141	2797
642.472	2739
642.803	2681
643.134	2626
643.465	2580
643.796	2542
644.127	2514
644.458	2500
644.789	2499
645.119	2512
645.450	2534
645.781	2560
646.111	2585
646.442	2607
646.773	2625
647.103	2638
647.433	2650
647.764	2662
648.094	2679
648.425	2699
648.755	2725
649.085	2754
649.415	2785
649.745	2818
650.075	2851
650.405	2888
650.735	2971
651.065	3564
651.395	5400
651.725	8419
652.055	12057
652.385	15689
652.715	19320
653.044	22953
653.374	26591
653.704	30235
654.033	33153
654.363	35034
654.692	36289
655.022	37109
655.351	37648
655.680	37984
656.010	38167
656.339	38249
656.668	38272
656.997	38263
657.326	38231
657.655	38140
657.984	37527
658.313	35662
658.642	32601
658.971	28914
659.300	25227
659.629	21540
659.958	17854
660.286	14169
660.615	10484
660.944	7533
661.272	5623
661.601	4341
661.929	3491
662.258	2917
662.586	2541
662.915	2311
663.243	2179
663.571	2103
663.899	2057
664.228	2028
664.556	2009
664.884	1996
665.212	1986
665.540	1979
665.868	1975
666.196	1973
666.524	1971
666.852	1972
667.179	1980
667.507	1995
667.835	2017
668.162	2045
668.490	2081
668.818	2123
669.145	2167
669.473	2211
669.800	2252
670.127	2288
670.455	2318
670.782	2343
671.109	2366
671.436	2384
671.764	2399
672.091	2411
672.418	2422
672.745	2430
673.072	2439
673.399	2449
673.726	2460
674.053	2468
674.379	2471
674.706	2469
675.033	2467
675.359	2463
675.686	2457
676.013	2454
676.339	2455
676.666	2463
676.992	2480
677.318	2505
677.645	2534
677.971	2560
678.297	2584
678.624	2607
678.950	2629
679.276	2650
679.602	2671
679.928	2692
680.254	2718
680.580	2752
680.906	2795
681.232	2847
681.558	2902
681.883	2957
682.209	3007
682.535	3054
682.860	3097
683.186	3133
683.511	3161
683.837	3179
684.162	3192
684.488	3203
684.813	3214
685.138	3224
685.464	3233
685.789	3242
686.114	3249
686.439	3259
686.764	3270
687.089	3278
687.414	3277
687.739	3267
688.064	3247
688.389	3221
688.714	3191
689.039	3158
689.363	3124
689.688	3086
690.013	3050
690.337	3017
690.662	2990
690.986	2966
691.311	2941
691.635	2917
691.959	2894
692.284	2878
692.608	2873
692.932	2878
693.256	2887
693.580	2898
693.904	2913
694.228	2931
694.552	2947
694.876	2954
695.200	2951
695.524	2938
695.848	2919
696.172	2895
696.495	2870
696.819	2844
697.143	2817
697.466	2789
697.790	2765
698.113	2749
698.437	2741
698.760	2739
699.083	2737
699.407	2729
699.730	2714
700.053	2691
700.376	2660
700.699	2617
701.022	2563
701.345	2505
701.668	2450
701.991	2404
702.314	2372
702.637	2357
702.960	2361
703.283	2385
703.605	2427
703.928	2484
704.251	2550
704.573	2614
704.896	2673
705.218	2721
705.540	2759
705.863	2790
706.185	2815
706.507	2836
706.830	2856
707.152	2877
707.474	2900
707.796	2926
708.118	2953
708.440	2979
708.762	3002
709.084	3020
709.406	3030
709.728	3032
710.049	3025
710.371	3012
710.693	2992
711.014	2970
711.336	2948
711.658	2929
711.979	2911
712.301	2894
712.622	2878
712.943	2857
713.265	2833
713.586	2808
713.907	2783
714.228	2761
714.549	2744
714.870	2731
715.191	2726
715.512	2724
715.833	2720
716.154	2712
716.475	2700
716.796	2682
717.117	2657
717.437	2627
717.758	2594
718.078	2560
718.399	2526
718.719	2497
719.040	2471
719.360	2451
719.681	2436
720.001	2427
720.321	2421
720.642	2419
720.962	2421
721.282	2427
721.602	2434
721.922	2442
722.242	2453
722.562	2469
722.882	2488
723.202	2505
723.521	2520
723.841	2537
724.161	2554
724.481	2571
724.800	2588
725.120	2610
725.439	2637
725.759	2668
726.078	2702
726.398	2745
726.717	2797
727.036	2856
727.355	2918
727.675	2980
727.994	3037
728.313	3093
728.632	3141
728.951	3181
729.270	3216
729.589	3249
729.908	3288
730.226	3333
730.545	3383
730.864	3436
731.182	3494
731.501	3553
731.820	3609
732.138	3658
732.457	3701
732.775	3740
733.093	3772
733.412	3790
733.730	3794
734.048	3787
734.367	3770
734.685	3747
735.003	3721
735.321	3698
735.639	3679
735.957	3663
736.275	3648
736.593	3628
736.910	3598
737.228	3555
737.546	3500
737.863	3436
738.181	3365
738.499	3290
738.816	3217
739.134	3145
739.451	3071
739.768	2998
740.086	2927
740.403	2862
740.720	2801
741.038	2744
741.355	2688
741.672	2633
741.989	2578
742.306	2520
742.623	2460
742.940	2403
743.257	2349
743.573	2302
743.890	2263
744.207	2234
744.523	2214
744.840	2201
745.157	2193
745.473	2191
745.790	2199
746.106	2216
746.422	2242
746.739	2274
747.055	2312
747.371	2356
747.687	2402
748.004	2445
748.320	2484
748.636	2518
748.952	2552
749.268	2587
749.584	2619
749.899	2649
750.215	2679
750.531	2713
750.847	2752
751.162	2791
751.478	2828
751.793	2868
752.109	2909
752.424	2954
752.740	3000
753.055	3052
753.370	3114
753.686	3186
754.001	3264
754.316	3345
754.631	3431
754.946	3523
755.261	3620
755.576	3714
755.891	3805
756.206	3895
756.521	3990
756.836	4087
757.150	4180
757.465	4261
757.780	4331
758.094	4390
758.409	4435
758.723	4464
759.038	4477
759.352	4478
759.667	4466
759.981	4444
760.295	4422
760.609	4406
760.923	4396
761.238	4390
761.552	4386
761.866	4380
762.180	4371
762.493	4348
762.807	4302
763.121	4233
763.435	4147
763.749	4052
764.062	3962
764.376	3888
764.689	3837
765.003	3809
765.316	3805
765.630	3817
765.943	3839
766.257	3864
766.570	3886
766.883	3892
767.196	3883
767.509	3859
767.822	3823
768.135	3775
768.448	3724
768.761	3670
769.074	3623
769.387	3588
769.700	3565
770.013	3552
770.325	3541
770.638	3525
770.950	3496
771.263	3449
771.575	3385
771.888	3302
772.200	3206
772.513	3101
772.825	2992
773.137	2879
773.449	2768
773.761	2660
774.074	2560
774.386	2471
774.698	2397
775.010	2336
775.321	2292
775.633	2264
775.945	2248
776.257	2238
776.568	2235
776.880	2243
777.192	2259
777.503	2284
777.815	2315
778.126	2354
778.438	2401
778.749	2452
779.060	2502
779.372	2549
779.683	2594
779.994	2635
780.305	2667
780.616	2689
780.927	2703
781.238	2708
781.549	2703
781.860	2685
782.171	2661
782.481	2633
782.792	2606
783.103	2579
783.413	2550
783.724	2519
784.034	2488
784.345	2460
784.655	2435
784.966	2409
785.276	2382
785.586	2356
785.896	2329
786.207	2301
786.517	2271
786.827	2242
787.137	2215
787.447	2188
787.757	2163
788.066	2139
788.376	2115
788.686	2092
788.996	2068
789.305	2044
789.615	2026
789.925	2015
790.234	2012
790.544	2017
790.853	2027
791.162	2038
791.472	2048
791.781	2051
792.090	2047
792.399	2034
792.708	2016
793.017	1994
793.326	1974
793.635	1954
793.944	1936
794.253	1921
794.562	1909
794.871	1903
795.179	1898
795.488	1891
795.797	1881
796.105	1864
796.414	1836
796.722	1798
797.031	1751
797.339	1693
797.647	1628
797.956	1560
798.264	1498
798.572	1445
798.880	1405
799.188	1375
799.496	1353
799.804	1336
800.112	1324
800.420	1314
800.728	1303
801.035	1290
801.343	1275
801.651	1263
801.958	1260
802.266	1265
802.573	1276
802.881	1290
803.188	1307
803.496	1326
803.803	1345
804.110	1362
804.417	1378
804.724	1391
805.032	1404
805.339	1414
805.646	1421
805.953	1425
806.259	1426
806.566	1424
806.873	1418
807.180	1412
807.486	1404
807.793	1395
808.100	1381
808.406	1358
808.713	1327
809.019	1291
809.326	1255
809.632	1219
809.938	1186
810.244	1157
810.551	1132
810.857	1111
811.163	1093
811.469	1073
811.775	1053
812.081	1032
812.387	1013
812.692	997
812.998	985
813.304	975
813.610	967
813.915	961
814.221	956
814.526	951
814.832	947
815.137	943
815.443	937
815.748	927
816.053	915
816.358	903
816.664	892
816.969	881
817.274	872
817.579	864
817.884	860
818.189	859
818.493	858
818.798	856
819.103	850
819.408	842
819.712	833
820.017	822
820.321	811
820.626	799
820.930	789
821.235	783
821.539	780
821.843	780
822.148	781
822.452	783
822.756	782
823.060	779
823.364	774
823.668	767
823.972	759
824.276	751
824.580	744
824.883	740
825.187	739
825.491	739
825.795	739
826.098	739
826.402	738
826.705	735
827.008	730
827.312	723
827.615	711
827.918	696
828.222	679
828.525	662
828.828	646
829.131	630
829.434	614
829.737	599
830.040	587
830.343	577
830.645	569
830.948	560
831.251	551
831.553	544
831.856	538
832.159	532
832.461	524
832.764	517
833.066	510
833.368	504
833.671	499
833.973	496
834.275	492
834.577	489
834.879	485
835.181	480
835.483	474
835.785	468
836.087	460
836.389	449
836.690	438
836.992	426
837.294	413
837.595	401
837.897	387
838.198	373
838.500	360
838.801	349
839.103	338
839.404	330
839.705	322
840.006	316
840.307	311
840.608	307
840.910	305
841.210	303
841.511	301
841.812	298
842.113	294
842.414	290
842.715	285
843.015	279
843.316	273
843.616	268
843.917	262
844.217	258
844.518	253
844.818	250
845.118	249
845.419	248
845.719	246
846.019	245
846.319	244
846.619	243
846.919	242
847.219	240
847.519	239
847.819	238
848.118	237
848.418	240
848.718	247
849.017	259
849.317	276
849.616	296
849.916	319
850.215	346
850.515	374
850.814	401
851.113	427
851.412	449
851.712	469
852.011	488
852.310	506
852.609	522
852.908	536
853.206	549
853.505	560
853.804	570
854.103	579
854.401	585
854.700	588
854.999	586
855.297	579
855.595	567
855.894	550
856.192	530
856.491	507
856.789	482
857.087	456
857.385	432
857.683	411
857.981	391
858.279	373
858.577	356
858.875	341
859.173	329
859.471	318
859.768	310
860.066	303
860.363	297
860.661	292
860.959	288
861.256	284
861.553	279
861.851	274
862.148	269
862.445	263
862.742	259
863.039	254
863.337	251
863.634	248
863.931	246
864.227	245
864.524	244
864.821	244
865.118	243
865.415	241
865.711	238
866.008	234
866.304	229
866.601	225
866.897	221
867.194	218
867.490	216
867.786	215
868.082	214
868.379	215
868.675	215
868.971	215
869.267	215
869.563	215
869.859	215
870.154	214
870.450	213
870.746	211
871.042	210
871.337	210
871.633	210
871.928	211
872.224	212
872.519	214
872.815	215
873.110	216
873.405	216
873.700	215
873.995	215
874.291	215
874.586	215
874.881	217
875.175	219
875.470	223
875.765	226
876.060	231
876.355	235
876.649	240
876.944	244
877.238	248
877.533	252
877.827	255
878.122	257
878.416	258
878.710	258
879.005	257
879.299	256
879.593	255
879.887	254
880.181	253
880.475	251
880.769	250
881.063	248
881.356	245
881.650	242
881.944	238
882.238	197
882.531	190
882.825	189
883.118	194
883.412	189
883.705	195
883.998	196
884.291	202
884.585	205
884.878	212
>>>>>>>>>> END of Data <<<<<<<<<<