Date	2021年06月15日火曜日 05時08分16秒
Spectrometers	USB2+H05879
ダーク	使用
リファレンス	使用
積分時間[msec]	10
平均回数	280
ｽﾑｰｼﾞﾝｸﾞ	10
Electrical Dark	USE
ピクセル数	2048
計測モード	吸光度
保存開始波長[nm]	190.664
保存終了波長[nm]	884.878
保存ﾋﾟｯﾁ波長[nm]	全波長

>>>>>>>>>> Data Start <<<<<<<<<<<<
190.664	0.000000
191.040	0.000000
191.415	0.000000
191.791	-2.214529
192.166	-0.487028
192.542	-0.966393
192.917	0.000000
193.293	-0.655885
193.668	-0.203444
194.044	-1.040760
194.419	0.000000
194.794	-1.462265
195.170	-1.377430
195.545	-1.292528
195.920	-1.169919
196.296	-1.054259
196.671	-0.884280
197.046	-0.730196
197.421	-0.670576
197.796	-0.664196
198.171	-0.630518
198.546	-0.582360
198.922	-0.527214
199.297	-0.505142
199.672	-0.475974
200.047	-0.451966
200.422	-0.414522
200.796	-0.397040
201.171	-0.381180
201.546	-0.384728
201.921	-0.370585
202.296	-0.356113
202.671	-0.328441
203.045	-0.303931
203.420	-0.289424
203.795	-0.269936
204.170	-0.261428
204.544	-0.260301
204.919	-0.259784
205.294	-0.257110
205.668	-0.241745
206.043	-0.218742
206.417	-0.219966
206.792	-0.208761
207.166	-0.199185
207.541	-0.196076
207.915	-0.196721
208.289	-0.186543
208.664	-0.181349
209.038	-0.170249
209.412	-0.144463
209.787	-0.134958
210.161	-0.126074
210.535	-0.134433
210.909	-0.127490
211.284	-0.120513
211.658	-0.121599
212.032	-0.124418
212.406	-0.129777
212.780	-0.123176
213.154	-0.122609
213.528	-0.118871
213.902	-0.125685
214.276	-0.115185
214.650	-0.117230
215.024	-0.111440
215.398	-0.112002
215.772	-0.100679
216.145	-0.099812
216.519	-0.093712
216.893	-0.092656
217.267	-0.103501
217.640	-0.100978
218.014	-0.089767
218.388	-0.080782
218.761	-0.085635
219.135	-0.073750
219.508	-0.080675
219.882	-0.078916
220.256	-0.068236
220.629	-0.059468
221.003	-0.053427
221.376	-0.055648
221.749	-0.058940
222.123	-0.059884
222.496	-0.065289
222.869	-0.066392
223.243	-0.060422
223.616	-0.066381
223.989	-0.070833
224.362	-0.071967
224.736	-0.073445
225.109	-0.066540
225.482	-0.062617
225.855	-0.067906
226.228	-0.070579
226.601	-0.071888
226.974	-0.073796
227.347	-0.059952
227.720	-0.060893
228.093	-0.065881
228.466	-0.079772
228.839	-0.083027
229.212	-0.090221
229.585	-0.094056
229.957	-0.089948
230.330	-0.077947
230.703	-0.071414
231.076	-0.073838
231.448	-0.075172
231.821	-0.073925
232.194	-0.068540
232.566	-0.067584
232.939	-0.073341
233.311	-0.076837
233.684	-0.074487
234.056	-0.077699
234.429	-0.067734
234.801	-0.065315
235.174	-0.068694
235.546	-0.066358
235.918	-0.067394
236.291	-0.059682
236.663	-0.054946
237.035	-0.049271
237.408	-0.040411
237.780	-0.037083
238.152	-0.046932
238.524	-0.055727
238.896	-0.051233
239.268	-0.045537
239.641	-0.041538
240.013	-0.035905
240.385	-0.029546
240.757	-0.029158
241.129	-0.028680
241.500	-0.030609
241.872	-0.021636
242.244	-0.018677
242.616	-0.020633
242.988	-0.014824
243.360	-0.011724
243.731	-0.005698
244.103	-0.005684
244.475	-0.006873
244.847	-0.005275
245.218	-0.003369
245.590	-0.003491
245.961	0.002586
246.333	0.011681
246.705	0.012153
247.076	0.016896
247.448	0.015213
247.819	0.009007
248.190	0.011309
248.562	0.010005
248.933	0.012920
249.305	0.025180
249.676	0.021925
250.047	0.014843
250.418	0.012645
250.790	0.010653
251.161	0.008822
251.532	0.010231
251.903	0.006154
252.274	0.017352
252.645	0.023221
253.016	0.021128
253.387	0.012931
253.758	0.014874
254.129	0.015142
254.500	0.020658
254.871	0.017519
255.242	0.019117
255.613	0.016730
255.984	0.010222
256.355	0.021858
256.725	0.021559
257.096	0.022900
257.467	0.018110
257.838	0.024719
258.208	0.027859
258.579	0.029697
258.949	0.027948
259.320	0.031483
259.690	0.040457
260.061	0.035560
260.431	0.042827
260.802	0.040261
261.172	0.049594
261.543	0.049937
261.913	0.044690
262.283	0.041319
262.654	0.044629
263.024	0.046177
263.394	0.051302
263.764	0.057783
264.135	0.047142
264.505	0.043055
264.875	0.046319
265.245	0.054553
265.615	0.052378
265.985	0.053283
266.355	0.054305
266.725	0.060251
267.095	0.055748
267.465	0.056709
267.835	0.053625
268.205	0.040675
268.575	0.046406
268.944	0.045961
269.314	0.047213
269.684	0.057711
270.054	0.046237
270.423	0.040661
270.793	0.041596
271.163	0.040615
271.532	0.048395
271.902	0.056655
272.271	0.065226
272.641	0.055120
273.010	0.050222
273.380	0.051248
273.749	0.057386
274.119	0.062491
274.488	0.072404
274.857	0.075839
275.227	0.068549
275.596	0.072461
275.965	0.081307
276.335	0.079880
276.704	0.079147
277.073	0.078645
277.442	0.073852
277.811	0.083501
278.180	0.089494
278.549	0.090636
278.918	0.092119
279.287	0.088782
279.656	0.087974
280.025	0.088228
280.394	0.090479
280.763	0.091573
281.132	0.087394
281.501	0.080185
281.869	0.074181
282.238	0.065390
282.607	0.056793
282.976	0.063045
283.344	0.064338
283.713	0.057442
284.081	0.060364
284.450	0.059861
284.819	0.062504
285.187	0.061020
285.556	0.063389
285.924	0.061081
286.292	0.060184
286.661	0.058812
287.029	0.051715
287.398	0.052674
287.766	0.050781
288.134	0.050659
288.502	0.054283
288.871	0.059450
289.239	0.063854
289.607	0.070957
289.975	0.072867
290.343	0.082521
290.711	0.082448
291.079	0.084821
291.447	0.089231
291.815	0.088547
292.183	0.093451
292.551	0.095385
292.919	0.102276
293.287	0.103457
293.655	0.102722
294.022	0.103245
294.390	0.108278
294.758	0.114076
295.126	0.115488
295.493	0.118019
295.861	0.124528
296.229	0.122848
296.596	0.125242
296.964	0.127280
297.331	0.126262
297.699	0.130282
298.066	0.130888
298.434	0.136184
298.801	0.129063
299.168	0.130095
299.536	0.131662
299.903	0.129480
300.270	0.131888
300.638	0.131720
301.005	0.139195
301.372	0.147598
301.739	0.152949
302.106	0.156896
302.473	0.165674
302.840	0.174248
303.207	0.191931
303.574	0.207595
303.941	0.223349
304.308	0.234660
304.675	0.246287
305.042	0.261248
305.409	0.280711
305.776	0.301246
306.143	0.315444
306.509	0.337391
306.876	0.362539
307.243	0.387938
307.610	0.414937
307.976	0.440095
308.343	0.474201
308.709	0.499758
309.076	0.538212
309.442	0.573358
309.809	0.603516
310.175	0.634099
310.542	0.660824
310.908	0.682801
311.275	0.701391
311.641	0.732811
312.007	0.759859
312.373	0.792334
312.740	0.818625
313.106	0.844003
313.472	0.874746
313.838	0.907266
314.204	0.937775
314.570	0.955922
314.936	0.980129
315.302	1.005938
315.668	1.026469
316.034	1.053432
316.400	1.085859
316.766	1.095992
317.132	1.123687
317.498	1.148437
317.864	1.160276
318.230	1.179003
318.595	1.198190
318.961	1.217040
319.327	1.232069
319.692	1.247988
320.058	1.253909
320.424	1.269283
320.789	1.288580
321.155	1.302070
321.520	1.314336
321.886	1.331414
322.251	1.348861
322.616	1.357489
322.982	1.367942
323.347	1.380999
323.712	1.389940
324.078	1.392567
324.443	1.404764
324.808	1.407005
325.173	1.412056
325.539	1.425022
325.904	1.431744
326.269	1.434281
326.634	1.444963
326.999	1.449433
327.364	1.455298
327.729	1.465307
328.094	1.471050
328.459	1.474207
328.823	1.476761
329.188	1.485222
329.553	1.484555
329.918	1.491377
330.283	1.498149
330.647	1.503145
331.012	1.508105
331.377	1.509617
331.741	1.514803
332.106	1.520370
332.470	1.522929
332.835	1.526745
333.199	1.527544
333.564	1.530967
333.928	1.538588
334.293	1.540301
334.657	1.540821
335.021	1.544823
335.386	1.548019
335.750	1.549424
336.114	1.549931
336.478	1.552978
336.843	1.551754
337.207	1.555179
337.571	1.555927
337.935	1.557201
338.299	1.557122
338.663	1.555394
339.027	1.557394
339.391	1.557318
339.755	1.556743
340.119	1.556127
340.483	1.554414
340.846	1.555590
341.210	1.556589
341.574	1.555216
341.938	1.553878
342.301	1.555332
342.665	1.555056
343.029	1.553825
343.392	1.554007
343.756	1.553182
344.119	1.551785
344.483	1.552581
344.846	1.552506
345.210	1.553662
345.573	1.552192
345.937	1.552054
346.300	1.553197
346.663	1.551884
347.027	1.552559
347.390	1.551276
347.753	1.551403
348.116	1.551979
348.479	1.552094
348.843	1.550224
349.206	1.549062
349.569	1.548598
349.932	1.548277
350.295	1.547890
350.658	1.547924
351.021	1.548041
351.383	1.548733
351.746	1.549599
352.109	1.549655
352.472	1.549740
352.835	1.549382
353.197	1.550039
353.560	1.551289
353.923	1.550742
354.285	1.550334
354.648	1.550045
355.011	1.550685
355.373	1.551675
355.736	1.551020
356.098	1.549926
356.461	1.551562
356.823	1.551549
357.185	1.553117
357.548	1.553506
357.910	1.553987
358.272	1.553633
358.635	1.553384
358.997	1.553002
359.359	1.553855
359.721	1.553108
360.083	1.553692
360.445	1.553283
360.807	1.553317
361.169	1.552279
361.531	1.553091
361.893	1.553878
362.255	1.554768
362.617	1.555894
362.979	1.556390
363.341	1.557112
363.703	1.558134
364.064	1.558364
364.426	1.560012
364.788	1.559881
365.149	1.560723
365.511	1.560890
365.873	1.562161
366.234	1.562614
366.596	1.563654
366.957	1.563054
367.319	1.563921
367.680	1.563572
368.042	1.562625
368.403	1.563214
368.764	1.564187
369.126	1.563323
369.487	1.564157
369.848	1.563991
370.209	1.564031
370.570	1.563846
370.931	1.564915
371.293	1.565256
371.654	1.566027
372.015	1.566714
372.376	1.567312
372.737	1.568410
373.098	1.569129
373.458	1.570189
373.819	1.571021
374.180	1.571901
374.541	1.573641
374.902	1.574679
375.263	1.575130
375.623	1.576216
375.984	1.577354
376.345	1.578024
376.705	1.580237
377.066	1.580816
377.426	1.580955
377.787	1.581280
378.147	1.582291
378.508	1.582426
378.868	1.583539
379.228	1.583519
379.589	1.583716
379.949	1.584234
380.309	1.584316
380.670	1.584697
381.030	1.584305
381.390	1.584164
381.750	1.584505
382.110	1.583087
382.470	1.583438
382.830	1.584513
383.190	1.585488
383.550	1.585288
383.910	1.586981
384.270	1.587566
384.630	1.588493
384.990	1.589871
385.350	1.591140
385.709	1.592260
386.069	1.593225
386.429	1.592535
386.788	1.594250
387.148	1.595359
387.508	1.596514
387.867	1.596896
388.227	1.596941
388.586	1.598232
388.946	1.599678
389.305	1.600387
389.665	1.602019
390.024	1.602827
390.383	1.603717
390.743	1.604454
391.102	1.606013
391.461	1.605712
391.820	1.606241
392.179	1.606214
392.539	1.606578
392.898	1.607675
393.257	1.608006
393.616	1.609774
393.975	1.612124
394.334	1.612818
394.693	1.613689
395.051	1.614405
395.410	1.615440
395.769	1.618051
396.128	1.618984
396.487	1.619604
396.845	1.620325
397.204	1.620509
397.563	1.620664
397.921	1.621034
398.280	1.621246
398.638	1.621183
398.997	1.621276
399.355	1.621520
399.714	1.622101
400.072	1.621797
400.431	1.621589
400.789	1.621268
401.147	1.620996
401.506	1.621067
401.864	1.620747
402.222	1.620214
402.580	1.619223
402.938	1.619509
403.297	1.617989
403.655	1.617345
404.013	1.618056
404.371	1.617581
404.729	1.617934
405.087	1.617871
405.444	1.617539
405.802	1.618193
406.160	1.617851
406.518	1.617858
406.876	1.617217
407.233	1.617552
407.591	1.618224
407.949	1.617751
408.306	1.618224
408.664	1.618308
409.022	1.617848
409.379	1.618080
409.737	1.618483
410.094	1.618951
410.451	1.619151
410.809	1.620002
411.166	1.620286
411.523	1.620388
411.881	1.621452
412.238	1.621748
412.595	1.621490
412.952	1.621687
413.310	1.620809
413.667	1.621524
414.024	1.621858
414.381	1.622196
414.738	1.621540
415.095	1.620858
415.452	1.620539
415.809	1.619932
416.165	1.619778
416.522	1.619859
416.879	1.619202
417.236	1.619154
417.593	1.618862
417.949	1.617955
418.306	1.617986
418.663	1.618761
419.019	1.618041
419.376	1.616825
419.732	1.616164
420.089	1.617069
420.445	1.617516
420.802	1.618047
421.158	1.617020
421.514	1.616140
421.871	1.616228
422.227	1.616255
422.583	1.616913
422.939	1.615717
423.295	1.615632
423.652	1.614926
424.008	1.613694
424.364	1.613098
424.720	1.612864
425.076	1.613189
425.432	1.612890
425.788	1.612054
426.143	1.611068
426.499	1.610192
426.855	1.610222
427.211	1.610589
427.567	1.609551
427.922	1.608563
428.278	1.606470
428.634	1.606350
428.989	1.606149
429.345	1.605178
429.700	1.604490
430.056	1.604089
430.411	1.605033
430.767	1.604778
431.122	1.604207
431.478	1.604125
431.833	1.603516
432.188	1.601889
432.543	1.601315
432.899	1.600557
433.254	1.598799
433.609	1.596703
433.964	1.595992
434.319	1.594138
434.674	1.592236
435.029	1.590633
435.384	1.589698
435.739	1.589185
436.094	1.588535
436.449	1.587377
436.804	1.586358
437.158	1.584777
437.513	1.583236
437.868	1.581415
438.223	1.579803
438.577	1.578389
438.932	1.577790
439.287	1.576538
439.641	1.575064
439.996	1.572379
440.350	1.571426
440.704	1.571146
441.059	1.570015
441.413	1.568320
441.768	1.567209
442.122	1.566252
442.476	1.564506
442.830	1.562613
443.185	1.561306
443.539	1.559139
443.893	1.557046
444.247	1.554697
444.601	1.553181
444.955	1.550453
445.309	1.548241
445.663	1.545952
446.017	1.543282
446.371	1.539955
446.724	1.537193
447.078	1.534728
447.432	1.532845
447.786	1.529417
448.139	1.525827
448.493	1.522919
448.847	1.519865
449.200	1.516596
449.554	1.513061
449.907	1.510283
450.261	1.507069
450.614	1.503707
450.968	1.500291
451.321	1.497071
451.674	1.493684
452.027	1.489693
452.381	1.486861
452.734	1.483490
453.087	1.480134
453.440	1.476418
453.793	1.472987
454.146	1.469971
454.499	1.467098
454.852	1.463500
455.205	1.460389
455.558	1.457291
455.911	1.454256
456.264	1.450956
456.617	1.447865
456.970	1.444590
457.322	1.441444
457.675	1.438725
458.028	1.436023
458.380	1.433581
458.733	1.430917
459.086	1.428282
459.438	1.425956
459.791	1.422252
460.143	1.419251
460.496	1.415933
460.848	1.413060
461.200	1.409983
461.553	1.406521
461.905	1.403701
462.257	1.400219
462.609	1.397248
462.961	1.393985
463.314	1.390508
463.666	1.387615
464.018	1.384262
464.370	1.381348
464.722	1.378039
465.074	1.374500
465.426	1.371540
465.777	1.368099
466.129	1.364791
466.481	1.361641
466.833	1.358308
467.184	1.355872
467.536	1.352347
467.888	1.349298
468.239	1.346201
468.591	1.342535
468.943	1.338815
469.294	1.334404
469.646	1.330975
469.997	1.326830
470.348	1.323624
470.700	1.320416
471.051	1.317217
471.402	1.314117
471.754	1.311182
472.105	1.308283
472.456	1.305338
472.807	1.301974
473.158	1.299352
473.509	1.296417
473.860	1.293715
474.211	1.291268
474.562	1.288611
474.913	1.285964
475.264	1.283193
475.615	1.280604
475.966	1.278387
476.316	1.275827
476.667	1.273376
477.018	1.270795
477.368	1.268228
477.719	1.265256
478.070	1.262693
478.420	1.259984
478.771	1.257458
479.121	1.254619
479.472	1.252064
479.822	1.249641
480.172	1.247195
480.523	1.244417
480.873	1.241967
481.223	1.238677
481.573	1.236004
481.924	1.233193
482.274	1.230621
482.624	1.228112
482.974	1.226038
483.324	1.224152
483.674	1.222420
484.024	1.220536
484.374	1.218844
484.724	1.217221
485.073	1.215597
485.423	1.213935
485.773	1.212212
486.123	1.210512
486.472	1.208820
486.822	1.207184
487.172	1.205526
487.521	1.203798
487.871	1.202239
488.220	1.200398
488.570	1.198558
488.919	1.195906
489.268	1.193064
489.618	1.189921
489.967	1.186452
490.316	1.182213
490.666	1.177899
491.015	1.174069
491.364	1.170756
491.713	1.167348
492.062	1.164279
492.411	1.161552
492.760	1.158898
493.109	1.156266
493.458	1.153694
493.807	1.151233
494.156	1.148520
494.505	1.145610
494.853	1.142932
495.202	1.140149
495.551	1.137424
495.900	1.134798
496.248	1.132166
496.597	1.129473
496.945	1.126873
497.294	1.124224
497.642	1.121584
497.991	1.118946
498.339	1.116002
498.688	1.113367
499.036	1.110994
499.384	1.108564
499.732	1.105833
500.081	1.103251
500.429	1.100637
500.777	1.098037
501.125	1.095531
501.473	1.093044
501.821	1.090665
502.169	1.088380
502.517	1.085809
502.865	1.083281
503.213	1.080805
503.561	1.078456
503.908	1.076055
504.256	1.073522
504.604	1.071053
504.952	1.068708
505.299	1.066207
505.647	1.064063
505.994	1.061587
506.342	1.059163
506.689	1.056756
507.037	1.054473
507.384	1.051889
507.732	1.049644
508.079	1.047357
508.426	1.045172
508.774	1.042622
509.121	1.040381
509.468	1.038151
509.815	1.036045
510.162	1.033996
510.509	1.031936
510.856	1.029830
511.203	1.027676
511.550	1.025647
511.897	1.023513
512.244	1.021346
512.591	1.019184
512.938	1.016966
513.284	1.014993
513.631	1.012874
513.978	1.010789
514.324	1.008882
514.671	1.007067
515.018	1.004978
515.364	1.002978
515.711	1.000776
516.057	0.998977
516.403	0.997041
516.750	0.995007
517.096	0.993138
517.443	0.991300
517.789	0.989364
518.135	0.987368
518.481	0.985493
518.827	0.983537
519.173	0.981672
519.519	0.979974
519.865	0.978247
520.211	0.976620
520.557	0.974617
520.903	0.972606
521.249	0.970742
521.595	0.968750
521.941	0.966639
522.287	0.964642
522.632	0.962433
522.978	0.960696
523.324	0.958942
523.669	0.957052
524.015	0.955064
524.360	0.953226
524.706	0.951298
525.051	0.949541
525.397	0.947765
525.742	0.945897
526.087	0.944224
526.433	0.942445
526.778	0.940664
527.123	0.939018
527.468	0.937201
527.813	0.935708
528.158	0.934239
528.504	0.932444
528.849	0.930437
529.193	0.928755
529.538	0.927020
529.883	0.925290
530.228	0.923110
530.573	0.921195
530.918	0.919329
531.263	0.917640
531.607	0.915654
531.952	0.913721
532.296	0.911702
532.641	0.909786
532.986	0.907845
533.330	0.905755
533.675	0.903955
534.019	0.901972
534.363	0.899802
534.708	0.897739
535.052	0.895561
535.396	0.893510
535.741	0.891668
536.085	0.889764
536.429	0.887643
536.773	0.885525
537.117	0.883341
537.461	0.881220
537.805	0.878791
538.149	0.876377
538.493	0.873816
538.837	0.871506
539.181	0.869117
539.524	0.866713
539.868	0.864338
540.212	0.861918
540.556	0.859566
540.899	0.856974
541.243	0.854504
541.586	0.852118
541.930	0.849723
542.273	0.847226
542.617	0.844615
542.960	0.841809
543.304	0.838970
543.647	0.836096
543.990	0.833281
544.333	0.830475
544.677	0.827731
545.020	0.824965
545.363	0.822135
545.706	0.819321
546.049	0.816457
546.392	0.813679
546.735	0.810802
547.078	0.807693
547.421	0.804595
547.764	0.801434
548.106	0.798397
548.449	0.795038
548.792	0.791735
549.135	0.788348
549.477	0.784997
549.820	0.781800
550.162	0.778617
550.505	0.775334
550.847	0.772030
551.190	0.768388
551.532	0.764750
551.875	0.760749
552.217	0.756823
552.559	0.753068
552.901	0.749307
553.244	0.745534
553.586	0.741830
553.928	0.738297
554.270	0.734800
554.612	0.731361
554.954	0.727931
555.296	0.724125
555.638	0.720419
555.980	0.716508
556.322	0.712385
556.663	0.708209
557.005	0.703887
557.347	0.699610
557.689	0.695456
558.030	0.691347
558.372	0.687242
558.713	0.683117
559.055	0.679081
559.396	0.674965
559.738	0.670679
560.079	0.666445
560.421	0.662267
560.762	0.658077
561.103	0.653872
561.444	0.649864
561.786	0.645862
562.127	0.641847
562.468	0.637865
562.809	0.633741
563.150	0.629534
563.491	0.625293
563.832	0.620818
564.173	0.616278
564.514	0.611649
564.855	0.606919
565.195	0.602033
565.536	0.597230
565.877	0.592509
566.218	0.587877
566.558	0.583382
566.899	0.578991
567.239	0.574832
567.580	0.570964
567.920	0.567286
568.261	0.563846
568.601	0.560549
568.941	0.557357
569.282	0.554317
569.622	0.551309
569.962	0.548326
570.302	0.545361
570.643	0.542504
570.983	0.539746
571.323	0.537061
571.663	0.534349
572.003	0.531680
572.343	0.529002
572.683	0.526156
573.022	0.523222
573.362	0.520250
573.702	0.517243
574.042	0.514297
574.381	0.511384
574.721	0.508458
575.061	0.505661
575.400	0.503005
575.740	0.500394
576.079	0.497813
576.419	0.495103
576.758	0.492362
577.097	0.489583
577.437	0.486730
577.776	0.483828
578.115	0.480956
578.454	0.478176
578.794	0.475654
579.133	0.473295
579.472	0.471076
579.811	0.468985
580.150	0.466886
580.489	0.464743
580.828	0.462525
581.167	0.460294
581.505	0.458089
581.844	0.455924
582.183	0.453740
582.522	0.451585
582.860	0.449484
583.199	0.447503
583.538	0.445630
583.876	0.443740
584.215	0.441832
584.553	0.439819
584.891	0.437757
585.230	0.435654
585.568	0.433502
585.906	0.431305
586.245	0.429202
586.583	0.427257
586.921	0.425554
587.259	0.424042
587.597	0.422566
587.935	0.420943
588.273	0.419167
588.611	0.417193
588.949	0.415141
589.287	0.413106
589.625	0.411086
589.963	0.409161
590.300	0.407239
590.638	0.405417
590.976	0.403603
591.313	0.401683
591.651	0.399817
591.989	0.398009
592.326	0.396306
592.664	0.394728
593.001	0.393209
593.338	0.391829
593.676	0.390586
594.013	0.389315
594.350	0.388095
594.687	0.386964
595.025	0.385917
595.362	0.384778
595.699	0.383570
596.036	0.382307
596.373	0.380959
596.710	0.379576
597.047	0.378134
597.384	0.376763
597.720	0.375358
598.057	0.374030
598.394	0.372733
598.731	0.371486
599.067	0.370226
599.404	0.368988
599.741	0.367807
600.077	0.366721
600.414	0.365669
600.750	0.364657
601.087	0.363715
601.423	0.362724
601.759	0.361670
602.096	0.360622
602.432	0.359583
602.768	0.358501
603.104	0.357434
603.440	0.356345
603.776	0.355336
604.112	0.354359
604.448	0.353414
604.784	0.352520
605.120	0.351622
605.456	0.350776
605.792	0.349925
606.128	0.349067
606.463	0.348245
606.799	0.347376
607.135	0.346500
607.470	0.345698
607.806	0.344854
608.142	0.344013
608.477	0.343187
608.812	0.342356
609.148	0.341537
609.483	0.340711
609.819	0.339900
610.154	0.339065
610.489	0.338270
610.824	0.337459
611.159	0.336720
611.494	0.335937
611.830	0.335240
612.165	0.334592
612.500	0.333920
612.834	0.333233
613.169	0.332582
613.504	0.331826
613.839	0.331119
614.174	0.330363
614.509	0.329576
614.843	0.328837
615.178	0.328105
615.512	0.327470
615.847	0.326862
616.182	0.326263
616.516	0.325720
616.850	0.325155
617.185	0.324537
617.519	0.323908
617.853	0.323269
618.188	0.322512
618.522	0.321754
618.856	0.321023
619.190	0.320308
619.524	0.319652
619.858	0.319034
620.192	0.318497
620.526	0.317959
620.860	0.317400
621.194	0.316869
621.528	0.316297
621.862	0.315763
622.195	0.315270
622.529	0.314639
622.863	0.314031
623.196	0.313430
623.530	0.312865
623.864	0.312298
624.197	0.311773
624.530	0.311276
624.864	0.310781
625.197	0.310382
625.531	0.309948
625.864	0.309431
626.197	0.308872
626.530	0.308324
626.863	0.307714
627.196	0.307009
627.529	0.306372
627.862	0.305755
628.195	0.305107
628.528	0.304529
628.861	0.303897
629.194	0.303381
629.527	0.302908
629.860	0.302395
630.192	0.301838
630.525	0.301230
630.858	0.300674
631.190	0.300123
631.523	0.299537
631.855	0.298857
632.188	0.298223
632.520	0.297687
632.852	0.297083
633.185	0.296501
633.517	0.295874
633.849	0.295353
634.182	0.294880
634.514	0.294422
634.846	0.294001
635.178	0.293688
635.510	0.293319
635.842	0.293013
636.174	0.292589
636.506	0.292202
636.837	0.291807
637.169	0.291431
637.501	0.291038
637.833	0.290667
638.164	0.290301
638.496	0.289801
638.828	0.289290
639.159	0.288706
639.491	0.288015
639.822	0.287420
640.154	0.286703
640.485	0.286045
640.816	0.285330
641.147	0.284645
641.479	0.283966
641.810	0.283322
642.141	0.282632
642.472	0.281908
642.803	0.281188
643.134	0.280543
643.465	0.279878
643.796	0.279260
644.127	0.278701
644.458	0.278291
644.789	0.277972
645.119	0.277696
645.450	0.277756
645.781	0.277913
646.111	0.278062
646.442	0.278135
646.773	0.278045
647.103	0.277856
647.433	0.277599
647.764	0.277387
648.094	0.277241
648.425	0.277142
648.755	0.276978
649.085	0.276781
649.415	0.276679
649.745	0.276615
650.075	0.276451
650.405	0.276203
650.735	0.274330
651.065	0.265532
651.395	0.261178
651.725	0.248914
652.055	0.209885
652.385	0.172113
652.715	0.139158
653.044	0.112636
653.374	0.098910
653.704	0.101219
654.033	0.115040
654.363	0.122894
654.692	0.127209
655.022	0.129595
655.351	0.130964
655.680	0.131721
656.010	0.132091
656.339	0.132221
656.668	0.132204
656.997	0.132107
657.326	0.131950
657.655	0.131724
657.984	0.130277
658.313	0.123931
658.642	0.114541
658.971	0.114475
659.300	0.123157
659.629	0.142941
659.958	0.177357
660.286	0.220369
660.615	0.251130
660.944	0.246854
661.272	0.243951
661.601	0.244100
661.929	0.246829
662.258	0.251017
662.586	0.255260
662.915	0.258563
663.243	0.260310
663.571	0.261082
663.899	0.261432
664.228	0.261529
664.556	0.261466
664.884	0.261441
665.212	0.261246
665.540	0.261077
665.868	0.260885
666.196	0.260773
666.524	0.260604
666.852	0.260515
667.179	0.260353
667.507	0.260303
667.835	0.260259
668.162	0.260196
668.490	0.260193
668.818	0.260303
669.145	0.260299
669.473	0.260359
669.800	0.260264
670.127	0.260309
670.455	0.260145
670.782	0.259959
671.109	0.259815
671.436	0.259709
671.764	0.259509
672.091	0.259419
672.418	0.259263
672.745	0.259063
673.072	0.258883
673.399	0.258753
673.726	0.258600
674.053	0.258440
674.379	0.258159
674.706	0.257876
675.033	0.257589
675.359	0.257274
675.686	0.256999
676.013	0.256655
676.339	0.256294
676.666	0.256010
676.992	0.255764
677.318	0.255700
677.645	0.255648
677.971	0.255625
678.297	0.255504
678.624	0.255348
678.950	0.255138
679.276	0.254899
679.602	0.254599
679.928	0.254376
680.254	0.254151
680.580	0.253927
680.906	0.253791
681.232	0.253796
681.558	0.253851
681.883	0.253894
682.209	0.253872
682.535	0.253738
682.860	0.253625
683.186	0.253540
683.511	0.253307
683.837	0.252994
684.162	0.252738
684.488	0.252462
684.813	0.252232
685.138	0.252038
685.464	0.251896
685.789	0.251617
686.114	0.251468
686.439	0.251419
686.764	0.251267
687.089	0.251100
687.414	0.250921
687.739	0.250746
688.064	0.250486
688.389	0.250085
688.714	0.249723
689.039	0.249294
689.363	0.248929
689.688	0.248570
690.013	0.248202
690.337	0.248022
690.662	0.247827
690.986	0.247695
691.311	0.247512
691.635	0.247273
691.959	0.246962
692.284	0.246662
692.608	0.246563
692.932	0.246484
693.256	0.246405
693.580	0.246431
693.904	0.246476
694.228	0.246500
694.552	0.246491
694.876	0.246413
695.200	0.246297
695.524	0.246079
695.848	0.245786
696.172	0.245388
696.495	0.244965
696.819	0.244748
697.143	0.244369
697.466	0.244147
697.790	0.243740
698.113	0.243484
698.437	0.243256
698.760	0.243155
699.083	0.243163
699.407	0.242968
699.730	0.242718
700.053	0.242565
700.376	0.242230
700.699	0.241716
701.022	0.241179
701.345	0.240489
701.668	0.239712
701.991	0.238948
702.314	0.238238
702.637	0.237790
702.960	0.237501
703.283	0.237381
703.605	0.237193
703.928	0.237248
704.251	0.237377
704.573	0.237400
704.896	0.237422
705.218	0.237238
705.540	0.236887
705.863	0.236393
706.185	0.235850
706.507	0.235339
706.830	0.234656
707.152	0.234071
707.474	0.233647
707.796	0.233177
708.118	0.232807
708.440	0.232498
708.762	0.232322
709.084	0.232067
709.406	0.231776
709.728	0.231530
710.049	0.231219
710.371	0.230894
710.693	0.230426
711.014	0.229834
711.336	0.229460
711.658	0.228987
711.979	0.228674
712.301	0.228451
712.622	0.228220
712.943	0.228123
713.265	0.227945
713.586	0.227755
713.907	0.227621
714.228	0.227545
714.549	0.227504
714.870	0.227518
715.191	0.227571
715.512	0.227606
715.833	0.227692
716.154	0.227632
716.475	0.227376
716.796	0.227121
717.117	0.226686
717.437	0.226290
717.758	0.225843
718.078	0.225376
718.399	0.225103
718.719	0.224757
719.040	0.224418
719.360	0.224233
719.681	0.223904
720.001	0.223722
720.321	0.223642
720.642	0.223552
720.962	0.223286
721.282	0.223205
721.602	0.223101
721.922	0.222990
722.242	0.222827
722.562	0.222622
722.882	0.222504
723.202	0.222555
723.521	0.222518
723.841	0.222471
724.161	0.222397
724.481	0.222479
724.800	0.222318
725.120	0.222139
725.439	0.222133
725.759	0.222082
726.078	0.222086
726.398	0.222137
726.717	0.222220
727.036	0.222347
727.355	0.222499
727.675	0.222704
727.994	0.222777
728.313	0.222859
728.632	0.222912
728.951	0.222847
729.270	0.222758
729.589	0.222548
729.908	0.222293
730.226	0.222131
730.545	0.222113
730.864	0.222026
731.182	0.221872
731.501	0.221916
731.820	0.221846
732.138	0.221700
732.457	0.221532
732.775	0.221340
733.093	0.221247
733.412	0.221074
733.730	0.220862
734.048	0.220583
734.367	0.220203
734.685	0.219849
735.003	0.219388
735.321	0.218986
735.639	0.218683
735.957	0.218503
736.275	0.218376
736.593	0.218354
736.910	0.218212
737.228	0.217940
737.546	0.217697
737.863	0.217431
738.181	0.217042
738.499	0.216655
738.816	0.216423
739.134	0.216176
739.451	0.215968
739.768	0.215715
740.086	0.215447
740.403	0.215123
740.720	0.214859
741.038	0.214641
741.355	0.214280
741.672	0.214044
741.989	0.213801
742.306	0.213449
742.623	0.212917
742.940	0.212370
743.257	0.211697
743.573	0.211186
743.890	0.210692
744.207	0.210237
744.523	0.209999
744.840	0.209752
745.157	0.209589
745.473	0.209193
745.790	0.208951
746.106	0.208736
746.422	0.208589
746.739	0.208385
747.055	0.208393
747.371	0.208330
747.687	0.208331
748.004	0.208427
748.320	0.208391
748.636	0.208213
748.952	0.208161
749.268	0.208286
749.584	0.208438
749.899	0.208536
750.215	0.208520
750.531	0.208650
750.847	0.208864
751.162	0.208888
751.478	0.209014
751.793	0.209043
752.109	0.209034
752.424	0.209117
752.740	0.209112
753.055	0.209166
753.370	0.209358
753.686	0.209596
754.001	0.209943
754.316	0.210262
754.631	0.210579
754.946	0.210829
755.261	0.211126
755.576	0.211256
755.891	0.211245
756.206	0.211224
756.521	0.211116
756.836	0.211198
757.150	0.211202
757.465	0.211188
757.780	0.211173
758.094	0.211211
758.409	0.211255
758.723	0.211293
759.038	0.211231
759.352	0.211180
759.667	0.211068
759.981	0.210903
760.295	0.210654
760.609	0.210344
760.923	0.210133
761.238	0.209800
761.552	0.209582
761.866	0.209380
762.180	0.209289
762.493	0.209219
762.807	0.209036
763.121	0.208813
763.435	0.208470
763.749	0.208144
764.062	0.207857
764.376	0.207532
764.689	0.207222
765.003	0.207059
765.316	0.206971
765.630	0.207050
765.943	0.207028
766.257	0.206991
766.570	0.206914
766.883	0.206654
767.196	0.206393
767.509	0.205978
767.822	0.205635
768.135	0.205313
768.448	0.204932
768.761	0.204544
769.074	0.204217
769.387	0.203986
769.700	0.203826
770.013	0.203748
770.325	0.203667
770.638	0.203569
770.950	0.203460
771.263	0.203255
771.575	0.202926
771.888	0.202507
772.200	0.201946
772.513	0.201491
772.825	0.201008
773.137	0.200563
773.449	0.200216
773.761	0.199832
774.074	0.199533
774.386	0.199249
774.698	0.198935
775.010	0.198560
775.321	0.198306
775.633	0.197979
775.945	0.197891
776.257	0.197911
776.568	0.197732
776.880	0.197622
777.192	0.197515
777.503	0.197396
777.815	0.197410
778.126	0.197519
778.438	0.197698
778.749	0.198047
779.060	0.198164
779.372	0.198267
779.683	0.198326
779.994	0.198514
780.305	0.198568
780.616	0.198622
780.927	0.198647
781.238	0.198519
781.549	0.198538
781.860	0.198523
782.171	0.198585
782.481	0.198571
782.792	0.198450
783.103	0.198506
783.413	0.198439
783.724	0.198293
784.034	0.198253
784.345	0.198089
784.655	0.197941
784.966	0.197797
785.276	0.197538
785.586	0.197416
785.896	0.197324
786.207	0.197238
786.517	0.197121
786.827	0.197122
787.137	0.196970
787.447	0.196931
787.757	0.197006
788.066	0.197043
788.376	0.196938
788.686	0.196819
788.996	0.196733
789.305	0.196708
789.615	0.196574
789.925	0.196538
790.234	0.196632
790.544	0.196658
790.853	0.196754
791.162	0.196865
791.472	0.197030
791.781	0.197146
792.090	0.197161
792.399	0.197081
792.708	0.196860
793.017	0.196592
793.326	0.196340
793.635	0.196226
793.944	0.195945
794.253	0.195651
794.562	0.195332
794.871	0.195318
795.179	0.195223
795.488	0.195061
795.797	0.194937
796.105	0.194828
796.414	0.194672
796.722	0.194421
797.031	0.194246
797.339	0.193848
797.647	0.193281
797.956	0.192610
798.264	0.191832
798.572	0.191353
798.880	0.190912
799.188	0.190718
799.496	0.190483
799.804	0.190381
800.112	0.190227
800.420	0.190234
800.728	0.190170
801.035	0.190069
801.343	0.189659
801.651	0.189217
801.958	0.188907
802.266	0.188695
802.573	0.188547
802.881	0.188586
803.188	0.188561
803.496	0.188782
803.803	0.189058
804.110	0.189055
804.417	0.189088
804.724	0.189081
805.032	0.188850
805.339	0.188755
805.646	0.188691
805.953	0.188519
806.259	0.188269
806.566	0.188034
806.873	0.187862
807.180	0.187792
807.486	0.187801
807.793	0.187877
808.100	0.188033
808.406	0.188052
808.713	0.187904
809.019	0.187399
809.326	0.186855
809.632	0.186470
809.938	0.185624
810.244	0.184967
810.551	0.184573
810.857	0.184012
811.163	0.183805
811.469	0.183587
811.775	0.183301
812.081	0.182894
812.387	0.182730
812.692	0.182642
812.998	0.182700
813.304	0.182466
813.610	0.182521
813.915	0.182466
814.221	0.182308
814.526	0.182191
814.832	0.182008
815.137	0.181848
815.443	0.181828
815.748	0.181887
816.053	0.181617
816.358	0.181382
816.664	0.181132
816.969	0.180975
817.274	0.181158
817.579	0.181073
817.884	0.180857
818.189	0.180806
818.493	0.180714
818.798	0.180759
819.103	0.180632
819.408	0.180096
819.712	0.180119
820.017	0.179617
820.321	0.178953
820.626	0.178742
820.930	0.178042
821.235	0.177696
821.539	0.177480
821.843	0.177511
822.148	0.177464
822.452	0.177461
822.756	0.177638
823.060	0.177492
823.364	0.177623
823.668	0.177391
823.972	0.177283
824.276	0.177050
824.580	0.177153
824.883	0.177207
825.187	0.177290
825.491	0.177440
825.795	0.177890
826.098	0.177765
826.402	0.177812
826.705	0.178132
827.008	0.177771
827.312	0.177739
827.615	0.177483
827.918	0.177014
828.222	0.176582
828.525	0.175883
828.828	0.175637
829.131	0.175464
829.434	0.175347
829.737	0.174748
830.040	0.173884
830.343	0.173438
830.645	0.173311
830.948	0.172615
831.251	0.172299
831.553	0.171680
831.856	0.171273
832.159	0.170775
832.461	0.170608
832.764	0.170585
833.066	0.170141
833.368	0.170109
833.671	0.170067
833.973	0.169874
834.275	0.169994
834.577	0.169640
834.879	0.169742
835.181	0.168995
835.483	0.168451
835.785	0.167720
836.087	0.167314
836.389	0.167310
836.690	0.166438
836.992	0.165604
837.294	0.164445
837.595	0.163339
837.897	0.162159
838.198	0.161322
838.500	0.160694
838.801	0.159373
839.103	0.158390
839.404	0.157729
839.705	0.156747
840.006	0.156147
840.307	0.155908
840.608	0.155639
840.910	0.155905
841.210	0.155916
841.511	0.156390
841.812	0.156280
842.113	0.156286
842.414	0.155540
842.715	0.154748
843.015	0.153725
843.316	0.153140
843.616	0.152555
843.917	0.151981
844.217	0.151709
844.518	0.150218
844.818	0.149436
845.118	0.149775
845.419	0.149778
845.719	0.149944
846.019	0.149738
846.319	0.150137
846.619	0.149850
846.919	0.150288
847.219	0.150449
847.519	0.150052
847.819	0.149706
848.118	0.149638
848.418	0.149618
848.718	0.149610
849.017	0.149947
849.317	0.150632
849.616	0.151295
849.916	0.152859
850.215	0.154147
850.515	0.155206
850.814	0.156024
851.113	0.156737
851.412	0.156792
851.712	0.156389
852.011	0.156434
852.310	0.156668
852.609	0.156617
852.908	0.156780
853.206	0.156678
853.505	0.156986
853.804	0.157134
854.103	0.157358
854.401	0.157534
854.700	0.157510
854.999	0.157212
855.297	0.156999
855.595	0.157036
855.894	0.156734
856.192	0.156217
856.491	0.155276
856.789	0.154404
857.087	0.153627
857.385	0.152838
857.683	0.152337
857.981	0.151885
858.279	0.151194
858.577	0.150195
858.875	0.149500
859.173	0.148682
859.471	0.148570
859.768	0.147851
860.066	0.147142
860.363	0.146065
860.661	0.144958
860.959	0.144754
861.256	0.145249
861.553	0.145537
861.851	0.144679
862.148	0.144263
862.445	0.143455
862.742	0.142992
863.039	0.142025
863.337	0.141641
863.634	0.140997
863.931	0.140343
864.227	0.140795
864.524	0.140079
864.821	0.140389
865.118	0.139793
865.415	0.139337
865.711	0.138347
866.008	0.137149
866.304	0.137221
866.601	0.137190
866.897	0.137208
867.194	0.136435
867.490	0.135982
867.786	0.135990
868.082	0.135774
868.379	0.135298
868.675	0.135736
868.971	0.135518
869.267	0.136159
869.563	0.136619
869.859	0.135716
870.154	0.135286
870.450	0.135123
870.746	0.135270
871.042	0.135097
871.337	0.135211
871.633	0.135564
871.928	0.135353
872.224	0.134997
872.519	0.133773
872.815	0.133723
873.110	0.133215
873.405	0.132860
873.700	0.131997
873.995	0.131170
874.291	0.131095
874.586	0.131589
874.881	0.131265
875.175	0.131628
875.470	0.131991
875.765	0.131705
876.060	0.132509
876.355	0.133683
876.649	0.133555
876.944	0.134417
877.238	0.134849
877.533	0.134925
877.827	0.135449
878.122	0.136282
878.416	0.137044
878.710	0.137837
879.005	0.137782
879.299	0.137509
879.593	0.137451
879.887	0.136870
880.181	0.136167
880.475	0.136488
880.769	0.136198
881.063	0.136350
881.356	0.136473
881.650	0.135306
881.944	0.134935
882.238	0.121184
882.531	0.127260
882.825	0.101839
883.118	0.112574
883.412	0.135387
883.705	0.129149
883.998	0.137453
884.291	0.136387
884.585	0.115989
884.878	0.125343
>>>>>>>>>> END of Data <<<<<<<<<<
>>>>>>>>>> Raw Data Start <<<<<<<<
190.664	-408
191.040	8
191.415	8
191.791	3
192.166	6
192.542	11
192.917	8
193.293	13
193.668	3
194.044	8
194.419	-8
194.794	11
195.170	12
195.545	12
195.920	13
196.296	13
196.671	13
197.046	14
197.421	14
197.796	15
198.171	16
198.546	16
198.922	16
199.297	16
199.672	17
200.047	17
200.422	17
200.796	17
201.171	17
201.546	17
201.921	17
202.296	17
202.671	17
203.045	17
203.420	18
203.795	17
204.170	17
204.544	17
204.919	17
205.294	17
205.668	17
206.043	16
206.417	16
206.792	16
207.166	16
207.541	15
207.915	15
208.289	15
208.664	15
209.038	15
209.412	14
209.787	15
210.161	15
210.535	15
210.909	15
211.284	15
211.658	15
212.032	15
212.406	15
212.780	14
213.154	14
213.528	14
213.902	14
214.276	14
214.650	14
215.024	14
215.398	14
215.772	14
216.145	14
216.519	14
216.893	14
217.267	14
217.640	14
218.014	15
218.388	15
218.761	15
219.135	15
219.508	15
219.882	15
220.256	15
220.629	15
221.003	14
221.376	15
221.749	15
222.123	15
222.496	15
222.869	15
223.243	15
223.616	15
223.989	15
224.362	16
224.736	16
225.109	16
225.482	16
225.855	15
226.228	15
226.601	15
226.974	15
227.347	15
227.720	15
228.093	15
228.466	15
228.839	16
229.212	16
229.585	15
229.957	15
230.330	15
230.703	15
231.076	15
231.448	15
231.821	15
232.194	15
232.566	15
232.939	15
233.311	14
233.684	15
234.056	15
234.429	15
234.801	14
235.174	15
235.546	15
235.918	15
236.291	15
236.663	15
237.035	15
237.408	15
237.780	16
238.152	16
238.524	16
238.896	16
239.268	16
239.641	16
240.013	16
240.385	16
240.757	16
241.129	16
241.500	16
241.872	16
242.244	16
242.616	16
242.988	16
243.360	16
243.731	16
244.103	16
244.475	16
244.847	16
245.218	16
245.590	16
245.961	16
246.333	16
246.705	16
247.076	15
247.448	16
247.819	16
248.190	16
248.562	16
248.933	16
249.305	16
249.676	17
250.047	17
250.418	17
250.790	17
251.161	17
251.532	17
251.903	17
252.274	16
252.645	16
253.016	16
253.387	16
253.758	17
254.129	16
254.500	17
254.871	17
255.242	17
255.613	17
255.984	17
256.355	16
256.725	16
257.096	16
257.467	16
257.838	16
258.208	16
258.579	16
258.949	16
259.320	16
259.690	16
260.061	17
260.431	16
260.802	17
261.172	16
261.543	16
261.913	17
262.283	17
262.654	16
263.024	16
263.394	16
263.764	16
264.135	17
264.505	17
264.875	17
265.245	17
265.615	17
265.985	17
266.355	17
266.725	16
267.095	17
267.465	17
267.835	17
268.205	17
268.575	17
268.944	17
269.314	17
269.684	16
270.054	16
270.423	16
270.793	16
271.163	17
271.532	16
271.902	16
272.271	16
272.641	16
273.010	16
273.380	16
273.749	16
274.119	16
274.488	16
274.857	16
275.227	16
275.596	16
275.965	16
276.335	16
276.704	16
277.073	16
277.442	17
277.811	17
278.180	17
278.549	16
278.918	17
279.287	17
279.656	17
280.025	17
280.394	17
280.763	17
281.132	17
281.501	18
281.869	18
282.238	18
282.607	18
282.976	17
283.344	17
283.713	18
284.081	17
284.450	18
284.819	18
285.187	18
285.556	18
285.924	18
286.292	18
286.661	18
287.029	18
287.398	18
287.766	18
288.134	18
288.502	18
288.871	18
289.239	18
289.607	18
289.975	18
290.343	18
290.711	18
291.079	18
291.447	17
291.815	18
292.183	17
292.551	17
292.919	17
293.287	17
293.655	17
294.022	17
294.390	17
294.758	17
295.126	17
295.493	17
295.861	16
296.229	16
296.596	16
296.964	16
297.331	16
297.699	17
298.066	17
298.434	17
298.801	17
299.168	17
299.536	17
299.903	17
300.270	17
300.638	17
301.005	17
301.372	17
301.739	18
302.106	18
302.473	18
302.840	18
303.207	18
303.574	18
303.941	18
304.308	18
304.675	18
305.042	18
305.409	18
305.776	18
306.143	18
306.509	18
306.876	19
307.243	19
307.610	19
307.976	19
308.343	18
308.709	18
309.076	18
309.442	18
309.809	18
310.175	18
310.542	18
310.908	18
311.275	19
311.641	19
312.007	19
312.373	19
312.740	19
313.106	19
313.472	19
313.838	19
314.204	19
314.570	20
314.936	20
315.302	20
315.668	20
316.034	20
316.400	20
316.766	21
317.132	20
317.498	20
317.864	21
318.230	21
318.595	21
318.961	22
319.327	22
319.692	22
320.058	23
320.424	23
320.789	24
321.155	24
321.520	25
321.886	25
322.251	25
322.616	26
322.982	26
323.347	27
323.712	28
324.078	29
324.443	29
324.808	31
325.173	32
325.539	32
325.904	33
326.269	34
326.634	35
326.999	36
327.364	36
327.729	37
328.094	38
328.459	39
328.823	40
329.188	40
329.553	41
329.918	42
330.283	42
330.647	43
331.012	44
331.377	45
331.741	45
332.106	46
332.470	47
332.835	48
333.199	49
333.564	49
333.928	50
334.293	51
334.657	52
335.021	53
335.386	53
335.750	54
336.114	55
336.478	56
336.843	58
337.207	58
337.571	59
337.935	60
338.299	62
338.663	63
339.027	64
339.391	65
339.755	66
340.119	67
340.483	69
340.846	70
341.210	71
341.574	72
341.938	73
342.301	74
342.665	75
343.029	77
343.392	78
343.756	79
344.119	80
344.483	81
344.846	82
345.210	83
345.573	85
345.937	86
346.300	86
346.663	88
347.027	88
347.390	90
347.753	91
348.116	92
348.479	92
348.843	94
349.206	95
349.569	96
349.932	97
350.295	98
350.658	99
351.021	99
351.383	100
351.746	101
352.109	101
352.472	102
352.835	103
353.197	104
353.560	104
353.923	105
354.285	106
354.648	107
355.011	107
355.373	108
355.736	108
356.098	109
356.461	110
356.823	110
357.185	111
357.548	111
357.910	112
358.272	112
358.635	113
358.997	114
359.359	114
359.721	115
360.083	116
360.445	116
360.807	117
361.169	118
361.531	118
361.893	119
362.255	119
362.617	119
362.979	120
363.341	120
363.703	121
364.064	121
364.426	121
364.788	122
365.149	122
365.511	123
365.873	123
366.234	123
366.596	124
366.957	124
367.319	124
367.680	125
368.042	125
368.403	126
368.764	126
369.126	126
369.487	126
369.848	127
370.209	127
370.570	127
370.931	127
371.293	127
371.654	127
372.015	127
372.376	127
372.737	127
373.098	127
373.458	127
373.819	127
374.180	127
374.541	127
374.902	127
375.263	128
375.623	128
375.984	128
376.345	129
376.705	129
377.066	129
377.426	129
377.787	130
378.147	130
378.508	130
378.868	131
379.228	131
379.589	131
379.949	132
380.309	132
380.670	132
381.030	133
381.390	133
381.750	133
382.110	134
382.470	134
382.830	134
383.190	134
383.550	134
383.910	134
384.270	134
384.630	135
384.990	135
385.350	135
385.709	135
386.069	135
386.429	136
386.788	136
387.148	136
387.508	136
387.867	136
388.227	136
388.586	137
388.946	137
389.305	138
389.665	138
390.024	139
390.383	139
390.743	140
391.102	140
391.461	140
391.820	140
392.179	141
392.539	141
392.898	141
393.257	141
393.616	141
393.975	141
394.334	142
394.693	143
395.051	143
395.410	144
395.769	144
396.128	144
396.487	145
396.845	144
397.204	145
397.563	145
397.921	144
398.280	144
398.638	144
398.997	144
399.355	144
399.714	144
400.072	145
400.431	145
400.789	145
401.147	146
401.506	146
401.864	146
402.222	146
402.580	146
402.938	146
403.297	146
403.655	146
404.013	145
404.371	145
404.729	145
405.087	145
405.444	145
405.802	145
406.160	145
406.518	145
406.876	145
407.233	145
407.591	145
407.949	145
408.306	145
408.664	145
409.022	145
409.379	144
409.737	144
410.094	144
410.451	144
410.809	144
411.166	144
411.523	144
411.881	144
412.238	144
412.595	145
412.952	145
413.310	145
413.667	144
414.024	145
414.381	144
414.738	145
415.095	145
415.452	145
415.809	145
416.165	145
416.522	146
416.879	146
417.236	147
417.593	147
417.949	148
418.306	149
418.663	150
419.019	152
419.376	154
419.732	155
420.089	156
420.445	157
420.802	158
421.158	159
421.514	160
421.871	160
422.227	161
422.583	161
422.939	162
423.295	162
423.652	163
424.008	163
424.364	164
424.720	164
425.076	163
425.432	163
425.788	163
426.143	164
426.499	164
426.855	164
427.211	165
427.567	165
427.922	166
428.278	166
428.634	166
428.989	166
429.345	166
429.700	167
430.056	167
430.411	167
430.767	168
431.122	168
431.478	169
431.833	169
432.188	170
432.543	170
432.899	170
433.254	170
433.609	171
433.964	170
434.319	170
434.674	170
435.029	170
435.384	170
435.739	171
436.094	171
436.449	172
436.804	173
437.158	175
437.513	176
437.868	178
438.223	180
438.577	182
438.932	184
439.287	186
439.641	188
439.996	191
440.350	192
440.704	194
441.059	196
441.413	198
441.768	200
442.122	202
442.476	204
442.830	206
443.185	208
443.539	210
443.893	212
444.247	214
444.601	215
444.955	216
445.309	217
445.663	218
446.017	218
446.371	219
446.724	220
447.078	220
447.432	220
447.786	220
448.139	221
448.493	221
448.847	220
449.200	220
449.554	221
449.907	220
450.261	220
450.614	220
450.968	221
451.321	221
451.674	221
452.027	221
452.381	221
452.734	222
453.087	223
453.440	223
453.793	224
454.146	225
454.499	227
454.852	229
455.205	231
455.558	233
455.911	235
456.264	237
456.617	240
456.970	242
457.322	244
457.675	246
458.028	247
458.380	248
458.733	250
459.086	251
459.438	253
459.791	255
460.143	257
460.496	260
460.848	263
461.200	267
461.553	270
461.905	274
462.257	277
462.609	280
462.961	282
463.314	285
463.666	287
464.018	290
464.370	291
464.722	294
465.074	297
465.426	299
465.777	301
466.129	303
466.481	305
466.833	307
467.184	307
467.536	308
467.888	308
468.239	308
468.591	308
468.943	309
469.294	310
469.646	311
469.997	313
470.348	315
470.700	317
471.051	321
471.402	325
471.754	329
472.105	334
472.456	339
472.807	346
473.158	352
473.509	359
473.860	367
474.211	374
474.562	382
474.913	390
475.264	399
475.615	408
475.966	416
476.316	425
476.667	433
477.018	442
477.368	451
477.719	461
478.070	469
478.420	478
478.771	486
479.121	495
479.472	503
479.822	511
480.172	520
480.523	531
480.873	545
481.223	569
481.573	603
481.924	646
482.274	694
482.624	745
482.974	795
483.324	840
483.674	875
484.024	899
484.374	915
484.724	926
485.073	934
485.423	940
485.773	947
486.123	953
486.472	960
486.822	965
487.172	970
487.521	975
487.871	977
488.220	975
488.570	964
488.919	943
489.268	912
489.618	876
489.967	837
490.316	798
490.666	764
491.015	739
491.364	725
491.713	719
492.062	718
492.411	720
492.760	723
493.109	726
493.458	730
493.807	733
494.156	736
494.505	740
494.853	743
495.202	747
495.551	752
495.900	757
496.248	763
496.597	768
496.945	773
497.294	779
497.642	784
497.991	791
498.339	798
498.688	806
499.036	813
499.384	820
499.732	827
500.081	832
500.429	837
500.777	842
501.125	847
501.473	851
501.821	856
502.169	860
502.517	865
502.865	868
503.213	871
503.561	873
503.908	874
504.256	876
504.604	877
504.952	878
505.299	878
505.647	877
505.994	876
506.342	875
506.689	873
507.037	872
507.384	872
507.732	872
508.079	872
508.426	873
508.774	874
509.121	874
509.468	874
509.815	873
510.162	873
510.509	872
510.856	871
511.203	870
511.550	870
511.897	869
512.244	869
512.591	868
512.938	868
513.284	867
513.631	866
513.978	865
514.324	864
514.671	862
515.018	860
515.364	859
515.711	858
516.057	856
516.403	855
516.750	854
517.096	852
517.443	849
517.789	847
518.135	845
518.481	843
518.827	842
519.173	839
519.519	837
519.865	836
520.211	834
520.557	833
520.903	833
521.249	832
521.595	832
521.941	832
522.287	831
522.632	831
522.978	830
523.324	830
523.669	831
524.015	832
524.360	834
524.706	837
525.051	841
525.397	846
525.742	851
526.087	856
526.433	861
526.778	866
527.123	869
527.468	873
527.813	875
528.158	878
528.504	881
528.849	887
529.193	893
529.538	900
529.883	909
530.228	920
530.573	932
530.918	944
531.263	956
531.607	968
531.952	978
532.296	987
532.641	995
532.986	1001
533.330	1007
533.675	1013
534.019	1020
534.363	1030
534.708	1042
535.052	1055
535.396	1069
535.741	1082
536.085	1094
536.429	1105
536.773	1114
537.117	1122
537.461	1128
537.805	1135
538.149	1142
538.493	1149
538.837	1157
539.181	1166
539.524	1177
539.868	1190
540.212	1205
540.556	1220
540.899	1236
541.243	1251
541.586	1263
541.930	1273
542.273	1280
542.617	1287
542.960	1294
543.304	1303
543.647	1314
543.990	1327
544.333	1343
544.677	1358
545.020	1373
545.363	1386
545.706	1397
546.049	1405
546.392	1410
546.735	1413
547.078	1416
547.421	1419
547.764	1423
548.106	1427
548.449	1433
548.792	1442
549.135	1453
549.477	1467
549.820	1481
550.162	1493
550.505	1503
550.847	1511
551.190	1518
551.532	1524
551.875	1530
552.217	1537
552.559	1545
552.901	1556
553.244	1568
553.586	1582
553.928	1595
554.270	1608
554.612	1619
554.954	1628
555.296	1638
555.638	1646
555.980	1656
556.322	1667
556.663	1681
557.005	1699
557.347	1722
557.689	1745
558.030	1769
558.372	1791
558.713	1812
559.055	1832
559.396	1851
559.738	1873
560.079	1895
560.421	1920
560.762	1949
561.103	1980
561.444	2013
561.786	2048
562.127	2086
562.468	2126
562.809	2170
563.150	2219
563.491	2271
563.832	2329
564.173	2394
564.514	2469
564.855	2558
565.195	2666
565.536	2795
565.877	2944
566.218	3113
566.558	3304
566.899	3514
567.239	3741
567.580	3979
567.920	4225
568.261	4474
568.601	4730
568.941	4995
569.282	5268
569.622	5552
569.962	5849
570.302	6166
570.643	6493
570.983	6825
571.323	7146
571.663	7460
572.003	7759
572.343	8042
572.683	8310
573.022	8584
573.362	8871
573.702	9169
574.042	9468
574.381	9757
574.721	10035
575.061	10303
575.400	10549
575.740	10769
576.079	10968
576.419	11167
576.758	11391
577.097	11650
577.437	11932
577.776	12234
578.115	12549
578.454	12870
578.794	13166
579.133	13401
579.472	13571
579.811	13680
580.150	13731
580.489	13740
580.828	13727
581.167	13715
581.505	13714
581.844	13717
582.183	13721
582.522	13734
582.860	13755
583.199	13774
583.538	13772
583.876	13730
584.215	13631
584.553	13470
584.891	13251
585.230	12976
585.568	12668
585.906	12353
586.245	12067
586.583	11820
586.921	11615
587.259	11427
587.597	11239
587.935	11046
588.273	10848
588.611	10665
588.949	10505
589.287	10371
589.625	10268
589.963	10189
590.300	10129
590.638	10075
590.976	10013
591.313	9939
591.651	9869
591.989	9808
592.326	9760
592.664	9720
593.001	9689
593.338	9672
593.676	9668
594.013	9682
594.350	9726
594.687	9794
595.025	9869
595.362	9940
595.699	9993
596.036	10031
596.373	10049
596.710	10042
597.047	10017
597.384	9983
597.720	9944
598.057	9913
598.394	9892
598.731	9884
599.067	9892
599.404	9917
599.741	9965
600.077	10028
600.414	10098
600.750	10173
601.087	10231
601.423	10263
601.759	10273
602.096	10264
602.432	10243
602.768	10206
603.104	10152
603.440	10083
603.776	10007
604.112	9924
604.448	9840
604.784	9749
605.120	9651
605.456	9557
605.792	9458
606.128	9353
606.463	9245
606.799	9136
607.135	9037
607.470	8938
607.806	8840
608.142	8745
608.477	8654
608.812	8566
609.148	8478
609.483	8384
609.819	8289
610.154	8197
610.489	8112
610.824	8039
611.159	7977
611.494	7915
611.830	7861
612.165	7807
612.500	7748
612.834	7678
613.169	7597
613.504	7509
613.839	7410
614.174	7297
614.509	7183
614.843	7069
615.178	6961
615.512	6853
615.847	6746
616.182	6641
616.516	6533
616.850	6420
617.185	6302
617.519	6183
617.853	6055
618.188	5922
618.522	5800
618.856	5696
619.190	5606
619.524	5526
619.858	5463
620.192	5413
620.526	5369
620.860	5326
621.194	5285
621.528	5244
621.862	5204
622.195	5154
622.529	5102
622.863	5047
623.196	4993
623.530	4937
623.864	4882
624.197	4825
624.530	4770
624.864	4720
625.197	4668
625.531	4609
625.864	4538
626.197	4463
626.530	4381
626.863	4288
627.196	4188
627.529	4086
627.862	3985
628.195	3885
628.528	3786
628.861	3691
629.194	3605
629.527	3523
629.860	3442
630.192	3363
630.525	3288
630.858	3219
631.190	3153
631.523	3090
631.855	3030
632.188	2979
632.520	2930
632.852	2885
633.185	2839
633.517	2794
633.849	2754
634.182	2717
634.514	2681
634.846	2650
635.178	2622
635.510	2597
635.842	2574
636.174	2552
636.506	2530
636.837	2509
637.169	2488
637.501	2465
637.833	2440
638.164	2412
638.496	2382
638.828	2347
639.159	2308
639.491	2266
639.822	2221
640.154	2177
640.485	2132
640.816	2089
641.147	2045
641.479	2003
641.810	1962
642.141	1923
642.472	1884
642.803	1846
643.134	1810
643.465	1778
643.796	1754
644.127	1736
644.458	1727
644.789	1727
645.119	1737
645.450	1752
645.781	1770
646.111	1787
646.442	1803
646.773	1816
647.103	1826
647.433	1835
647.764	1845
648.094	1857
648.425	1872
648.755	1890
649.085	1912
649.415	1934
649.745	1957
650.075	1981
650.405	2008
650.735	2068
651.065	2484
651.395	3746
651.725	5852
652.055	8583
652.385	11737
652.715	15222
653.044	18903
653.374	22326
653.704	25015
654.033	26956
654.363	28321
654.692	29247
655.022	29863
655.351	30273
655.680	30531
656.010	30674
656.339	30740
656.668	30761
656.997	30757
657.326	30736
657.655	30673
657.984	30245
658.313	28965
658.642	26832
658.971	24067
659.300	20877
659.629	17355
659.958	13639
660.286	10185
660.615	7469
660.944	5506
661.272	4121
661.601	3177
661.929	2542
662.258	2109
662.586	1824
662.915	1650
663.243	1550
663.571	1493
663.899	1459
664.228	1438
664.556	1424
664.884	1415
665.212	1408
665.540	1403
665.868	1401
666.196	1400
666.524	1399
666.852	1400
667.179	1406
667.507	1416
667.835	1432
668.162	1453
668.490	1478
668.818	1508
669.145	1540
669.473	1572
669.800	1602
670.127	1629
670.455	1651
670.782	1670
671.109	1687
671.436	1701
671.764	1713
672.091	1722
672.418	1731
672.745	1738
673.072	1745
673.399	1753
673.726	1761
674.053	1768
674.379	1771
674.706	1771
675.033	1771
675.359	1769
675.686	1766
676.013	1765
676.339	1766
676.666	1772
676.992	1786
677.318	1803
677.645	1824
677.971	1843
678.297	1861
678.624	1878
678.950	1895
679.276	1911
679.602	1926
679.928	1942
680.254	1961
680.580	1986
680.906	2017
681.232	2055
681.558	2095
681.883	2135
682.209	2173
682.535	2208
682.860	2240
683.186	2267
683.511	2289
683.837	2303
684.162	2314
684.488	2324
684.813	2333
685.138	2341
685.464	2348
685.789	2355
686.114	2361
686.439	2369
686.764	2378
687.089	2385
687.414	2386
687.739	2379
688.064	2366
688.389	2350
688.714	2329
689.039	2307
689.363	2283
689.688	2257
690.013	2232
690.337	2209
690.662	2190
690.986	2173
691.311	2156
691.635	2139
691.959	2124
692.284	2113
692.608	2110
692.932	2113
693.256	2120
693.580	2129
693.904	2140
694.228	2153
694.552	2166
694.876	2172
695.200	2170
695.524	2161
695.848	2148
696.172	2132
696.495	2114
696.819	2096
697.143	2076
697.466	2056
697.790	2039
698.113	2027
698.437	2021
698.760	2020
699.083	2018
699.407	2013
699.730	2003
700.053	1987
700.376	1965
700.699	1934
701.022	1895
701.345	1853
701.668	1813
701.991	1780
702.314	1757
702.637	1745
702.960	1748
703.283	1765
703.605	1796
703.928	1838
704.251	1886
704.573	1935
704.896	1979
705.218	2015
705.540	2044
705.863	2068
706.185	2088
706.507	2105
706.830	2121
707.152	2137
707.474	2154
707.796	2174
708.118	2194
708.440	2214
708.762	2231
709.084	2246
709.406	2254
709.728	2256
710.049	2252
710.371	2243
710.693	2229
711.014	2214
711.336	2198
711.658	2185
711.979	2172
712.301	2160
712.622	2148
712.943	2133
713.265	2115
713.586	2096
713.907	2079
714.228	2063
714.549	2050
714.870	2042
715.191	2037
715.512	2036
715.833	2033
716.154	2027
716.475	2019
716.796	2006
717.117	1988
717.437	1966
717.758	1942
718.078	1917
718.399	1891
718.719	1869
719.040	1850
719.360	1835
719.681	1824
720.001	1817
720.321	1813
720.642	1811
720.962	1812
721.282	1816
721.602	1822
721.922	1828
722.242	1836
722.562	1848
722.882	1863
723.202	1875
723.521	1887
723.841	1899
724.161	1912
724.481	1924
724.800	1938
725.120	1955
725.439	1976
725.759	1999
726.078	2025
726.398	2057
726.717	2096
727.036	2140
727.355	2187
727.675	2233
727.994	2276
728.313	2319
728.632	2355
728.951	2386
729.270	2412
729.589	2437
729.908	2467
730.226	2501
730.545	2537
730.864	2577
731.182	2621
731.501	2664
731.820	2706
732.138	2742
732.457	2775
732.775	2804
733.093	2828
733.412	2843
733.730	2847
734.048	2841
734.367	2829
734.685	2812
735.003	2793
735.321	2776
735.639	2762
735.957	2751
736.275	2740
736.593	2724
736.910	2701
737.228	2670
737.546	2630
737.863	2582
738.181	2530
738.499	2475
738.816	2420
739.134	2365
739.451	2310
739.768	2255
740.086	2202
740.403	2153
740.720	2107
741.038	2064
741.355	2022
741.672	1981
741.989	1938
742.306	1895
742.623	1850
742.940	1807
743.257	1767
743.573	1731
743.890	1702
744.207	1680
744.523	1664
744.840	1654
745.157	1647
745.473	1646
745.790	1652
746.106	1664
746.422	1683
746.739	1707
747.055	1735
747.371	1768
747.687	1802
748.004	1834
748.320	1863
748.636	1889
748.952	1915
749.268	1941
749.584	1965
749.899	1987
750.215	2010
750.531	2035
750.847	2063
751.162	2092
751.478	2120
751.793	2149
752.109	2180
752.424	2213
752.740	2247
753.055	2286
753.370	2332
753.686	2385
754.001	2443
754.316	2504
754.631	2568
754.946	2636
755.261	2707
755.576	2777
755.891	2845
756.206	2912
756.521	2983
756.836	3054
757.150	3123
757.465	3184
757.780	3236
758.094	3280
758.409	3314
758.723	3336
759.038	3346
759.352	3347
759.667	3337
759.981	3321
760.295	3305
760.609	3293
760.923	3285
761.238	3280
761.552	3277
761.866	3273
762.180	3266
762.493	3248
762.807	3215
763.121	3164
763.435	3101
763.749	3030
764.062	2963
764.376	2908
764.689	2869
765.003	2848
765.316	2844
765.630	2852
765.943	2868
766.257	2887
766.570	2902
766.883	2907
767.196	2901
767.509	2883
767.822	2856
768.135	2820
768.448	2782
768.761	2742
769.074	2707
769.387	2680
769.700	2662
770.013	2651
770.325	2643
770.638	2631
770.950	2609
771.263	2574
771.575	2526
771.888	2465
772.200	2394
772.513	2316
772.825	2233
773.137	2150
773.449	2067
773.761	1986
774.074	1912
774.386	1845
774.698	1790
775.010	1744
775.321	1711
775.633	1689
775.945	1677
776.257	1669
776.568	1667
776.880	1672
777.192	1685
777.503	1703
777.815	1726
778.126	1755
778.438	1790
778.749	1827
779.060	1864
779.372	1899
779.683	1933
779.994	1963
780.305	1987
780.616	2003
780.927	2014
781.238	2018
781.549	2014
781.860	2001
782.171	1983
782.481	1963
782.792	1943
783.103	1922
783.413	1900
783.724	1877
784.034	1854
784.345	1833
784.655	1814
784.966	1794
785.276	1775
785.586	1755
785.896	1734
786.207	1714
786.517	1692
786.827	1670
787.137	1650
787.447	1629
787.757	1610
788.066	1592
788.376	1575
788.686	1558
788.996	1540
789.305	1523
789.615	1509
789.925	1501
790.234	1498
790.544	1502
790.853	1509
791.162	1517
791.472	1524
791.781	1526
792.090	1524
792.399	1515
792.708	1501
793.017	1485
793.326	1470
793.635	1455
793.944	1442
794.253	1431
794.562	1423
794.871	1418
795.179	1414
795.488	1409
795.797	1402
796.105	1389
796.414	1369
796.722	1341
797.031	1305
797.339	1263
797.647	1215
797.956	1165
798.264	1118
798.572	1079
798.880	1049
799.188	1026
799.496	1010
799.804	997
800.112	988
800.420	980
800.728	972
801.035	962
801.343	950
801.651	942
801.958	939
802.266	943
802.573	951
802.881	961
803.188	974
803.496	988
803.803	1002
804.110	1015
804.417	1026
804.724	1037
805.032	1047
805.339	1055
805.646	1060
805.953	1063
806.259	1064
806.566	1063
806.873	1059
807.180	1054
807.486	1048
807.793	1041
808.100	1030
808.406	1013
808.713	990
809.019	964
809.326	937
809.632	911
809.938	887
810.244	865
810.551	846
810.857	831
811.163	817
811.469	803
811.775	787
812.081	772
812.387	757
812.692	746
812.998	737
813.304	730
813.610	724
813.915	719
814.221	716
814.526	713
814.832	710
815.137	707
815.443	703
815.748	696
816.053	687
816.358	677
816.664	669
816.969	661
817.274	654
817.579	648
817.884	645
818.189	644
818.493	644
818.798	642
819.103	638
819.408	632
819.712	625
820.017	617
820.321	609
820.626	601
820.930	594
821.235	589
821.539	586
821.843	586
822.148	587
822.452	588
822.756	588
823.060	586
823.364	582
823.668	578
823.972	572
824.276	566
824.580	561
824.883	558
825.187	557
825.491	557
825.795	556
826.098	557
826.402	556
826.705	553
827.008	550
827.312	544
827.615	535
827.918	524
828.222	512
828.525	500
828.828	488
829.131	476
829.434	463
829.737	452
830.040	443
830.343	436
830.645	429
830.948	423
831.251	416
831.553	411
831.856	407
832.159	403
832.461	397
832.764	392
833.066	386
833.368	382
833.671	378
833.973	376
834.275	373
834.577	371
834.879	367
835.181	364
835.483	360
835.785	355
836.087	349
836.389	342
836.690	333
836.992	324
837.294	315
837.595	305
837.897	295
838.198	284
838.500	274
838.801	266
839.103	258
839.404	252
839.705	246
840.006	242
840.307	238
840.608	235
840.910	233
841.210	232
841.511	230
841.812	228
842.113	225
842.414	222
842.715	218
843.015	214
843.316	209
843.616	205
843.917	201
844.217	198
844.518	195
844.818	193
845.118	192
845.419	191
845.719	189
846.019	188
846.319	187
846.619	186
846.919	185
847.219	184
847.519	183
847.819	182
848.118	182
848.418	184
848.718	190
849.017	199
849.317	212
849.616	227
849.916	244
850.215	264
850.515	285
850.814	306
851.113	325
851.412	343
851.712	359
852.011	373
852.310	387
852.609	400
852.908	410
853.206	420
853.505	429
853.804	437
854.103	443
854.401	448
854.700	450
854.999	449
855.297	443
855.595	434
855.894	422
856.192	407
856.491	390
856.789	371
857.087	352
857.385	333
857.683	317
857.981	302
858.279	288
858.577	275
858.875	263
859.173	254
859.471	246
859.768	240
860.066	234
860.363	230
860.661	226
860.959	223
861.256	220
861.553	217
861.851	213
862.148	208
862.445	204
862.742	200
863.039	197
863.337	194
863.634	192
863.931	191
864.227	190
864.524	189
864.821	189
865.118	189
865.415	187
865.711	185
866.008	182
866.304	178
866.601	175
866.897	172
867.194	169
867.490	168
867.786	166
868.082	167
868.379	167
868.675	167
868.971	168
869.267	167
869.563	167
869.859	167
870.154	167
870.450	166
870.746	165
871.042	164
871.337	164
871.633	164
871.928	165
872.224	166
872.519	168
872.815	169
873.110	170
873.405	170
873.700	169
873.995	169
874.291	169
874.586	170
874.881	171
875.175	173
875.470	175
875.765	178
876.060	181
876.355	184
876.649	188
876.944	191
877.238	194
877.533	197
877.827	199
878.122	201
878.416	201
878.710	201
879.005	201
879.299	200
879.593	199
879.887	198
880.181	198
880.475	196
880.769	195
881.063	193
881.356	191
881.650	189
881.944	186
882.238	157
882.531	149
882.825	155
883.118	154
883.412	148
883.705	148
883.998	150
884.291	155
884.585	163
884.878	166
>>>>>>>>>> END of Data <<<<<<<<<<